         ID: 

    Comment: 

Scan Type: Normal
Start Angle: 5 deg.
Stop Angle: 100 deg.
Num Points: 4751
Step Size: 0.02 deg.
Datafile Res: 1600 
Scan Rate: 10.000000
Scan Mode: Continuous
Wavelength: 1.540562

Diffractometer Optics:
		Detector:
			 Type: Fixed Slits
			 X2 Configuration: No
		Tube: 
			 Type: Fixed Slits
			 X2 Configuration: No


Axis[0]
	 Selected   : no 
	 Iterative  : no 
	 Start Angle: 0.000000 
	 Stop Angle : 0.000000 
	 Step Size  : 0.000000 
	 Oscillating: no 

Axis[1]
	 Selected   : no 
	 Iterative  : no 
	 Start Angle: 0.000000 
	 Stop Angle : 0.000000 
	 Step Size  : 0.000000 
	 Oscillating: no 

Axis[2]
	 Selected   : no 
	 Iterative  : no 
	 Start Angle: 0.000000 
	 Stop Angle : 0.000000 
	 Step Size  : 0.000000 
	 Oscillating: no 

Axis[3]
	 Selected   : no 
	 Iterative  : no 
	 Start Angle: 0.000000 
	 Stop Angle : 0.000000 
	 Step Size  : 0.000000 
	 Oscillating: no 

Axis[4]
	 Selected   : no 
	 Iterative  : no 
	 Start Angle: 0.000000 
	 Stop Angle : 0.000000 
	 Step Size  : 0.000000 
	 Oscillating: no 

Axis[5]
	 Selected   : no 
	 Iterative  : no 
	 Start Angle: 0.000000 
	 Stop Angle : 0.000000 
	 Step Size  : 0.000000 
	 Oscillating: no 

Axis[6]
	 Selected   : no 
	 Iterative  : no 
	 Start Angle: 0.000000 
	 Stop Angle : 0.000000 
	 Step Size  : 0.000000 
	 Oscillating: no 

Axis[7]
	 Selected   : no 
	 Iterative  : no 
	 Start Angle: 0.000000 
	 Stop Angle : 0.000000 
	 Step Size  : 0.000000 
	 Oscillating: no 

Axis[8]
	 Selected   : no 
	 Iterative  : no 
	 Start Angle: 0.000000 
	 Stop Angle : 0.000000 
	 Step Size  : 0.000000 
	 Oscillating: no 

Axis[9]
	 Selected   : no 
	 Iterative  : no 
	 Start Angle: 0.000000 
	 Stop Angle : 0.000000 
	 Step Size  : 0.000000 
	 Oscillating: no 




	   Deg.      CPS  	    ESD   

Range 0
   5.000	    133.33	    33.333
   5.020	    183.33	    39.087
   5.040	    233.33	    44.096
   5.060	    266.67	    47.140
   5.080	    216.67	    42.492
   5.100	    200.00	    40.825
   5.120	    225.00	    43.301
   5.140	    241.67	    44.876
   5.160	    158.33	    36.324
   5.180	    158.33	    36.324
   5.200	    316.67	    51.370
   5.220	    158.33	    36.324
   5.240	    250.00	    45.644
   5.260	    200.00	    40.825
   5.280	    200.00	    40.825
   5.300	    183.33	    39.087
   5.320	    141.67	    34.359
   5.340	    166.67	    37.268
   5.360	    208.33	    41.667
   5.380	    250.00	    45.644
   5.400	    150.00	    35.355
   5.420	    208.33	    41.667
   5.440	    200.00	    40.825
   5.460	    233.33	    44.096
   5.480	    208.33	    41.667
   5.500	    300.00	    50.000
   5.520	    208.33	    41.667
   5.540	    133.33	    33.333
   5.560	    216.67	    42.492
   5.580	    225.00	    43.301
   5.600	    225.00	    43.301
   5.620	    216.67	    42.492
   5.640	    250.00	    45.644
   5.660	    241.67	    44.876
   5.680	    258.33	    46.398
   5.700	    141.67	    34.359
   5.720	    183.33	    39.087
   5.740	    200.00	    40.825
   5.760	    225.00	    43.301
   5.780	    216.67	    42.492
   5.800	    241.67	    44.876
   5.820	    141.67	    34.359
   5.840	    183.33	    39.087
   5.860	    175.00	    38.188
   5.880	    150.00	    35.355
   5.900	    225.00	    43.301
   5.920	    116.67	    31.180
   5.940	    150.00	    35.355
   5.960	    200.00	    40.825
   5.980	    166.67	    37.268
   6.000	    200.00	    40.825
   6.020	    225.00	    43.301
   6.040	    200.00	    40.825
   6.060	    191.67	    39.965
   6.080	    200.00	    40.825
   6.100	    166.67	    37.268
   6.120	    241.67	    44.876
   6.140	    200.00	    40.825
   6.160	    158.33	    36.324
   6.180	    183.33	    39.087
   6.200	    200.00	    40.825
   6.220	    133.33	    33.333
   6.240	    166.67	    37.268
   6.260	    225.00	    43.301
   6.280	    133.33	    33.333
   6.300	    175.00	    38.188
   6.320	    225.00	    43.301
   6.340	    183.33	    39.087
   6.360	    166.67	    37.268
   6.380	    191.67	    39.965
   6.400	    216.67	    42.492
   6.420	    183.33	    39.087
   6.440	    191.67	    39.965
   6.460	    225.00	    43.301
   6.480	    166.67	    37.268
   6.500	    200.00	    40.825
   6.520	    175.00	    38.188
   6.540	    208.33	    41.667
   6.560	    191.67	    39.965
   6.580	    133.33	    33.333
   6.600	    216.67	    42.492
   6.620	    158.33	    36.324
   6.640	    125.00	    32.275
   6.660	    158.33	    36.324
   6.680	    133.33	    33.333
   6.700	    150.00	    35.355
   6.720	    208.33	    41.667
   6.740	    133.33	    33.333
   6.760	    158.33	    36.324
   6.780	    166.67	    37.268
   6.800	    241.67	    44.876
   6.820	    191.67	    39.965
   6.840	    133.33	    33.333
   6.860	    183.33	    39.087
   6.880	    166.67	    37.268
   6.900	    225.00	    43.301
   6.920	    233.33	    44.096
   6.940	    225.00	    43.301
   6.960	    191.67	    39.965
   6.980	    141.67	    34.359
   7.000	    200.00	    40.825
   7.020	    183.33	    39.087
   7.040	    133.33	    33.333
   7.060	    141.67	    34.359
   7.080	    141.67	    34.359
   7.100	    150.00	    35.355
   7.120	    216.67	    42.492
   7.140	    133.33	    33.333
   7.160	    150.00	    35.355
   7.180	    108.33	    30.046
   7.200	    108.33	    30.046
   7.220	    208.33	    41.667
   7.240	    150.00	    35.355
   7.260	    150.00	    35.355
   7.280	    166.67	    37.268
   7.300	    150.00	    35.355
   7.320	    133.33	    33.333
   7.340	    158.33	    36.324
   7.360	    100.00	    28.868
   7.380	    125.00	    32.275
   7.400	    108.33	    30.046
   7.420	    133.33	    33.333
   7.440	    150.00	    35.355
   7.460	    175.00	    38.188
   7.480	    166.67	    37.268
   7.500	    175.00	    38.188
   7.520	    166.67	    37.268
   7.540	    175.00	    38.188
   7.560	    150.00	    35.355
   7.580	    141.67	    34.359
   7.600	    158.33	    36.324
   7.620	    158.33	    36.324
   7.640	    125.00	    32.275
   7.660	    125.00	    32.275
   7.680	    158.33	    36.324
   7.700	    125.00	    32.275
   7.720	    158.33	    36.324
   7.740	    116.67	    31.180
   7.760	    125.00	    32.275
   7.780	    133.33	    33.333
   7.800	    175.00	    38.188
   7.820	    175.00	    38.188
   7.840	    166.67	    37.268
   7.860	    100.00	    28.868
   7.880	    100.00	    28.868
   7.900	    183.33	    39.087
   7.920	    108.33	    30.046
   7.940	    125.00	    32.275
   7.960	    133.33	    33.333
   7.980	    133.33	    33.333
   8.000	    116.67	    31.180
   8.020	    191.67	    39.965
   8.040	    125.00	    32.275
   8.060	    125.00	    32.275
   8.080	     91.67	    27.639
   8.100	    125.00	    32.275
   8.120	     83.33	    26.352
   8.140	    133.33	    33.333
   8.160	    100.00	    28.868
   8.180	    150.00	    35.355
   8.200	    141.67	    34.359
   8.220	    133.33	    33.333
   8.240	    141.67	    34.359
   8.260	     91.67	    27.639
   8.280	    166.67	    37.268
   8.300	    158.33	    36.324
   8.320	    150.00	    35.355
   8.340	     91.67	    27.639
   8.360	     83.33	    26.352
   8.380	    150.00	    35.355
   8.400	    141.67	    34.359
   8.420	    116.67	    31.180
   8.440	     91.67	    27.639
   8.460	    125.00	    32.275
   8.480	    108.33	    30.046
   8.500	     83.33	    26.352
   8.520	    100.00	    28.868
   8.540	    116.67	    31.180
   8.560	    158.33	    36.324
   8.580	    158.33	    36.324
   8.600	    191.67	    39.965
   8.620	    183.33	    39.087
   8.640	     91.67	    27.639
   8.660	    133.33	    33.333
   8.680	    150.00	    35.355
   8.700	    150.00	    35.355
   8.720	    208.33	    41.667
   8.740	     75.00	    25.000
   8.760	    108.33	    30.046
   8.780	     91.67	    27.639
   8.800	    175.00	    38.188
   8.820	    158.33	    36.324
   8.840	    141.67	    34.359
   8.860	    133.33	    33.333
   8.880	    133.33	    33.333
   8.900	    175.00	    38.188
   8.920	    141.67	    34.359
   8.940	    125.00	    32.275
   8.960	    125.00	    32.275
   8.980	    108.33	    30.046
   9.000	    175.00	    38.188
   9.020	    208.33	    41.667
   9.040	    183.33	    39.087
   9.060	    150.00	    35.355
   9.080	    116.67	    31.180
   9.100	    150.00	    35.355
   9.120	    183.33	    39.087
   9.140	     91.67	    27.639
   9.160	    175.00	    38.188
   9.180	    158.33	    36.324
   9.200	    100.00	    28.868
   9.220	     50.00	    20.412
   9.240	    150.00	    35.355
   9.260	    150.00	    35.355
   9.280	    166.67	    37.268
   9.300	    141.67	    34.359
   9.320	    141.67	    34.359
   9.340	    100.00	    28.868
   9.360	    175.00	    38.188
   9.380	    116.67	    31.180
   9.400	    100.00	    28.868
   9.420	    141.67	    34.359
   9.440	    133.33	    33.333
   9.460	    133.33	    33.333
   9.480	    141.67	    34.359
   9.500	    141.67	    34.359
   9.520	    150.00	    35.355
   9.540	    133.33	    33.333
   9.560	    166.67	    37.268
   9.580	    141.67	    34.359
   9.600	     75.00	    25.000
   9.620	    150.00	    35.355
   9.640	    116.67	    31.180
   9.660	    141.67	    34.359
   9.680	    141.67	    34.359
   9.700	    208.33	    41.667
   9.720	    175.00	    38.188
   9.740	    133.33	    33.333
   9.760	    116.67	    31.180
   9.780	    116.67	    31.180
   9.800	    191.67	    39.965
   9.820	    108.33	    30.046
   9.840	    141.67	    34.359
   9.860	    216.67	    42.492
   9.880	    141.67	    34.359
   9.900	    116.67	    31.180
   9.920	    100.00	    28.868
   9.940	    166.67	    37.268
   9.960	    108.33	    30.046
   9.980	    116.67	    31.180
  10.000	     91.67	    27.639
  10.020	    116.67	    31.180
  10.040	    133.33	    33.333
  10.060	     66.67	    23.570
  10.080	    125.00	    32.275
  10.100	    100.00	    28.868
  10.120	     91.67	    27.639
  10.140	    100.00	    28.868
  10.160	     91.67	    27.639
  10.180	    108.33	    30.046
  10.200	    150.00	    35.355
  10.220	    100.00	    28.868
  10.240	    208.33	    41.667
  10.260	     91.67	    27.639
  10.280	    100.00	    28.868
  10.300	    100.00	    28.868
  10.320	    158.33	    36.324
  10.340	    133.33	    33.333
  10.360	    141.67	    34.359
  10.380	    133.33	    33.333
  10.400	    166.67	    37.268
  10.420	    108.33	    30.046
  10.440	    116.67	    31.180
  10.460	    133.33	    33.333
  10.480	    100.00	    28.868
  10.500	     75.00	    25.000
  10.520	    141.67	    34.359
  10.540	    133.33	    33.333
  10.560	    133.33	    33.333
  10.580	    116.67	    31.180
  10.600	    116.67	    31.180
  10.620	    108.33	    30.046
  10.640	    133.33	    33.333
  10.660	    108.33	    30.046
  10.680	    100.00	    28.868
  10.700	    125.00	    32.275
  10.720	    133.33	    33.333
  10.740	    125.00	    32.275
  10.760	    100.00	    28.868
  10.780	    108.33	    30.046
  10.800	    175.00	    38.188
  10.820	    108.33	    30.046
  10.840	    141.67	    34.359
  10.860	    150.00	    35.355
  10.880	    141.67	    34.359
  10.900	    150.00	    35.355
  10.920	    133.33	    33.333
  10.940	    116.67	    31.180
  10.960	     91.67	    27.639
  10.980	     75.00	    25.000
  11.000	    108.33	    30.046
  11.020	     91.67	    27.639
  11.040	    108.33	    30.046
  11.060	     75.00	    25.000
  11.080	    158.33	    36.324
  11.100	    108.33	    30.046
  11.120	     91.67	    27.639
  11.140	     50.00	    20.412
  11.160	    141.67	    34.359
  11.180	    166.67	    37.268
  11.200	     91.67	    27.639
  11.220	    100.00	    28.868
  11.240	    175.00	    38.188
  11.260	    100.00	    28.868
  11.280	    133.33	    33.333
  11.300	    158.33	    36.324
  11.320	    108.33	    30.046
  11.340	    116.67	    31.180
  11.360	    125.00	    32.275
  11.380	    116.67	    31.180
  11.400	    108.33	    30.046
  11.420	     66.67	    23.570
  11.440	    158.33	    36.324
  11.460	    125.00	    32.275
  11.480	     75.00	    25.000
  11.500	     75.00	    25.000
  11.520	    183.33	    39.087
  11.540	    108.33	    30.046
  11.560	     75.00	    25.000
  11.580	     75.00	    25.000
  11.600	    133.33	    33.333
  11.620	    116.67	    31.180
  11.640	    108.33	    30.046
  11.660	    116.67	    31.180
  11.680	    116.67	    31.180
  11.700	     91.67	    27.639
  11.720	    108.33	    30.046
  11.740	    125.00	    32.275
  11.760	     91.67	    27.639
  11.780	    125.00	    32.275
  11.800	    116.67	    31.180
  11.820	     91.67	    27.639
  11.840	    141.67	    34.359
  11.860	    125.00	    32.275
  11.880	     50.00	    20.412
  11.900	    158.33	    36.324
  11.920	     75.00	    25.000
  11.940	    100.00	    28.868
  11.960	    116.67	    31.180
  11.980	     91.67	    27.639
  12.000	    125.00	    32.275
  12.020	    108.33	    30.046
  12.040	     91.67	    27.639
  12.060	    150.00	    35.355
  12.080	    125.00	    32.275
  12.100	    100.00	    28.868
  12.120	    166.67	    37.268
  12.140	    100.00	    28.868
  12.160	    133.33	    33.333
  12.180	    175.00	    38.188
  12.200	     91.67	    27.639
  12.220	     91.67	    27.639
  12.240	    108.33	    30.046
  12.260	    100.00	    28.868
  12.280	     75.00	    25.000
  12.300	     75.00	    25.000
  12.320	     83.33	    26.352
  12.340	    141.67	    34.359
  12.360	     75.00	    25.000
  12.380	    133.33	    33.333
  12.400	     75.00	    25.000
  12.420	    150.00	    35.355
  12.440	    100.00	    28.868
  12.460	    125.00	    32.275
  12.480	    158.33	    36.324
  12.500	    125.00	    32.275
  12.520	    141.67	    34.359
  12.540	    108.33	    30.046
  12.560	     83.33	    26.352
  12.580	    108.33	    30.046
  12.600	    141.67	    34.359
  12.620	     66.67	    23.570
  12.640	    100.00	    28.868
  12.660	     91.67	    27.639
  12.680	     58.33	    22.048
  12.700	     83.33	    26.352
  12.720	     66.67	    23.570
  12.740	     83.33	    26.352
  12.760	    158.33	    36.324
  12.780	    150.00	    35.355
  12.800	    108.33	    30.046
  12.820	     83.33	    26.352
  12.840	    100.00	    28.868
  12.860	     66.67	    23.570
  12.880	    141.67	    34.359
  12.900	    133.33	    33.333
  12.920	    133.33	    33.333
  12.940	    116.67	    31.180
  12.960	    133.33	    33.333
  12.980	    150.00	    35.355
  13.000	     91.67	    27.639
  13.020	    133.33	    33.333
  13.040	    125.00	    32.275
  13.060	     91.67	    27.639
  13.080	    108.33	    30.046
  13.100	     66.67	    23.570
  13.120	    108.33	    30.046
  13.140	    108.33	    30.046
  13.160	    108.33	    30.046
  13.180	    116.67	    31.180
  13.200	     91.67	    27.639
  13.220	    125.00	    32.275
  13.240	     91.67	    27.639
  13.260	    125.00	    32.275
  13.280	    133.33	    33.333
  13.300	    150.00	    35.355
  13.320	     75.00	    25.000
  13.340	    141.67	    34.359
  13.360	    100.00	    28.868
  13.380	    100.00	    28.868
  13.400	    125.00	    32.275
  13.420	    108.33	    30.046
  13.440	    158.33	    36.324
  13.460	     83.33	    26.352
  13.480	     75.00	    25.000
  13.500	    108.33	    30.046
  13.520	     83.33	    26.352
  13.540	    116.67	    31.180
  13.560	     83.33	    26.352
  13.580	    100.00	    28.868
  13.600	     66.67	    23.570
  13.620	    133.33	    33.333
  13.640	    108.33	    30.046
  13.660	     91.67	    27.639
  13.680	     91.67	    27.639
  13.700	    133.33	    33.333
  13.720	    150.00	    35.355
  13.740	     66.67	    23.570
  13.760	     91.67	    27.639
  13.780	     66.67	    23.570
  13.800	    100.00	    28.868
  13.820	    100.00	    28.868
  13.840	    116.67	    31.180
  13.860	     91.67	    27.639
  13.880	     91.67	    27.639
  13.900	     83.33	    26.352
  13.920	    100.00	    28.868
  13.940	     75.00	    25.000
  13.960	    141.67	    34.359
  13.980	    116.67	    31.180
  14.000	     75.00	    25.000
  14.020	     83.33	    26.352
  14.040	    100.00	    28.868
  14.060	    108.33	    30.046
  14.080	    166.67	    37.268
  14.100	    133.33	    33.333
  14.120	    133.33	    33.333
  14.140	    141.67	    34.359
  14.160	    108.33	    30.046
  14.180	    116.67	    31.180
  14.200	     83.33	    26.352
  14.220	    108.33	    30.046
  14.240	     66.67	    23.570
  14.260	     91.67	    27.639
  14.280	    141.67	    34.359
  14.300	     91.67	    27.639
  14.320	    125.00	    32.275
  14.340	    108.33	    30.046
  14.360	    100.00	    28.868
  14.380	    108.33	    30.046
  14.400	     41.67	    18.634
  14.420	    100.00	    28.868
  14.440	    100.00	    28.868
  14.460	    116.67	    31.180
  14.480	    125.00	    32.275
  14.500	    141.67	    34.359
  14.520	    108.33	    30.046
  14.540	    125.00	    32.275
  14.560	    116.67	    31.180
  14.580	    108.33	    30.046
  14.600	     75.00	    25.000
  14.620	    100.00	    28.868
  14.640	     75.00	    25.000
  14.660	     75.00	    25.000
  14.680	    133.33	    33.333
  14.700	    108.33	    30.046
  14.720	     83.33	    26.352
  14.740	     91.67	    27.639
  14.760	    133.33	    33.333
  14.780	     91.67	    27.639
  14.800	     75.00	    25.000
  14.820	     66.67	    23.570
  14.840	     91.67	    27.639
  14.860	     75.00	    25.000
  14.880	    108.33	    30.046
  14.900	     83.33	    26.352
  14.920	    108.33	    30.046
  14.940	     75.00	    25.000
  14.960	     66.67	    23.570
  14.980	     83.33	    26.352
  15.000	    125.00	    32.275
  15.020	    125.00	    32.275
  15.040	    125.00	    32.275
  15.060	    116.67	    31.180
  15.080	     91.67	    27.639
  15.100	    125.00	    32.275
  15.120	    133.33	    33.333
  15.140	    100.00	    28.868
  15.160	    141.67	    34.359
  15.180	    141.67	    34.359
  15.200	    125.00	    32.275
  15.220	     50.00	    20.412
  15.240	    125.00	    32.275
  15.260	     91.67	    27.639
  15.280	    125.00	    32.275
  15.300	    108.33	    30.046
  15.320	    100.00	    28.868
  15.340	     91.67	    27.639
  15.360	     66.67	    23.570
  15.380	    183.33	    39.087
  15.400	     83.33	    26.352
  15.420	    125.00	    32.275
  15.440	     91.67	    27.639
  15.460	    150.00	    35.355
  15.480	     75.00	    25.000
  15.500	    108.33	    30.046
  15.520	    108.33	    30.046
  15.540	     75.00	    25.000
  15.560	    100.00	    28.868
  15.580	     50.00	    20.412
  15.600	    158.33	    36.324
  15.620	     75.00	    25.000
  15.640	    108.33	    30.046
  15.660	    100.00	    28.868
  15.680	    133.33	    33.333
  15.700	     75.00	    25.000
  15.720	     91.67	    27.639
  15.740	     75.00	    25.000
  15.760	     75.00	    25.000
  15.780	    100.00	    28.868
  15.800	    116.67	    31.180
  15.820	     50.00	    20.412
  15.840	     66.67	    23.570
  15.860	    100.00	    28.868
  15.880	     83.33	    26.352
  15.900	     41.67	    18.634
  15.920	     91.67	    27.639
  15.940	     91.67	    27.639
  15.960	    183.33	    39.087
  15.980	     83.33	    26.352
  16.000	    100.00	    28.868
  16.020	    100.00	    28.868
  16.040	    100.00	    28.868
  16.060	     75.00	    25.000
  16.080	     91.67	    27.639
  16.100	    100.00	    28.868
  16.120	     83.33	    26.352
  16.140	    150.00	    35.355
  16.160	    125.00	    32.275
  16.180	     91.67	    27.639
  16.200	     91.67	    27.639
  16.220	     91.67	    27.639
  16.240	     75.00	    25.000
  16.260	     75.00	    25.000
  16.280	    166.67	    37.268
  16.300	    116.67	    31.180
  16.320	    100.00	    28.868
  16.340	    116.67	    31.180
  16.360	    108.33	    30.046
  16.380	    133.33	    33.333
  16.400	     91.67	    27.639
  16.420	    108.33	    30.046
  16.440	     75.00	    25.000
  16.460	     91.67	    27.639
  16.480	     83.33	    26.352
  16.500	     83.33	    26.352
  16.520	    116.67	    31.180
  16.540	    108.33	    30.046
  16.560	    116.67	    31.180
  16.580	    133.33	    33.333
  16.600	     50.00	    20.412
  16.620	    100.00	    28.868
  16.640	    100.00	    28.868
  16.660	     50.00	    20.412
  16.680	     75.00	    25.000
  16.700	     91.67	    27.639
  16.720	     66.67	    23.570
  16.740	     83.33	    26.352
  16.760	     66.67	    23.570
  16.780	    116.67	    31.180
  16.800	     58.33	    22.048
  16.820	    100.00	    28.868
  16.840	     91.67	    27.639
  16.860	     66.67	    23.570
  16.880	     83.33	    26.352
  16.900	    108.33	    30.046
  16.920	    116.67	    31.180
  16.940	     75.00	    25.000
  16.960	     91.67	    27.639
  16.980	    116.67	    31.180
  17.000	     58.33	    22.048
  17.020	     41.67	    18.634
  17.040	     75.00	    25.000
  17.060	     50.00	    20.412
  17.080	    100.00	    28.868
  17.100	     91.67	    27.639
  17.120	    125.00	    32.275
  17.140	    125.00	    32.275
  17.160	     91.67	    27.639
  17.180	     83.33	    26.352
  17.200	    108.33	    30.046
  17.220	     75.00	    25.000
  17.240	    108.33	    30.046
  17.260	     83.33	    26.352
  17.280	     75.00	    25.000
  17.300	     83.33	    26.352
  17.320	    133.33	    33.333
  17.340	     50.00	    20.412
  17.360	     83.33	    26.352
  17.380	    116.67	    31.180
  17.400	     83.33	    26.352
  17.420	     83.33	    26.352
  17.440	    116.67	    31.180
  17.460	     83.33	    26.352
  17.480	     75.00	    25.000
  17.500	     75.00	    25.000
  17.520	    100.00	    28.868
  17.540	     83.33	    26.352
  17.560	     83.33	    26.352
  17.580	     75.00	    25.000
  17.600	    100.00	    28.868
  17.620	     91.67	    27.639
  17.640	    100.00	    28.868
  17.660	     83.33	    26.352
  17.680	     58.33	    22.048
  17.700	    100.00	    28.868
  17.720	     91.67	    27.639
  17.740	     75.00	    25.000
  17.760	     83.33	    26.352
  17.780	     66.67	    23.570
  17.800	    100.00	    28.868
  17.820	     66.67	    23.570
  17.840	    100.00	    28.868
  17.860	     91.67	    27.639
  17.880	    100.00	    28.868
  17.900	     91.67	    27.639
  17.920	     75.00	    25.000
  17.940	     83.33	    26.352
  17.960	    125.00	    32.275
  17.980	    100.00	    28.868
  18.000	    125.00	    32.275
  18.020	    100.00	    28.868
  18.040	     91.67	    27.639
  18.060	     91.67	    27.639
  18.080	     50.00	    20.412
  18.100	     66.67	    23.570
  18.120	    116.67	    31.180
  18.140	     75.00	    25.000
  18.160	     91.67	    27.639
  18.180	     66.67	    23.570
  18.200	    100.00	    28.868
  18.220	     83.33	    26.352
  18.240	     41.67	    18.634
  18.260	    100.00	    28.868
  18.280	     66.67	    23.570
  18.300	     58.33	    22.048
  18.320	     83.33	    26.352
  18.340	     75.00	    25.000
  18.360	    125.00	    32.275
  18.380	     91.67	    27.639
  18.400	     66.67	    23.570
  18.420	     66.67	    23.570
  18.440	     83.33	    26.352
  18.460	     58.33	    22.048
  18.480	     41.67	    18.634
  18.500	    108.33	    30.046
  18.520	     16.67	    11.785
  18.540	     33.33	    16.667
  18.560	     75.00	    25.000
  18.580	     58.33	    22.048
  18.600	     41.67	    18.634
  18.620	    100.00	    28.868
  18.640	    116.67	    31.180
  18.660	    108.33	    30.046
  18.680	     41.67	    18.634
  18.700	    100.00	    28.868
  18.720	     91.67	    27.639
  18.740	     66.67	    23.570
  18.760	    100.00	    28.868
  18.780	    108.33	    30.046
  18.800	     91.67	    27.639
  18.820	    108.33	    30.046
  18.840	     25.00	    14.434
  18.860	     91.67	    27.639
  18.880	     66.67	    23.570
  18.900	     91.67	    27.639
  18.920	    108.33	    30.046
  18.940	     91.67	    27.639
  18.960	     91.67	    27.639
  18.980	     66.67	    23.570
  19.000	     75.00	    25.000
  19.020	     66.67	    23.570
  19.040	    158.33	    36.324
  19.060	    108.33	    30.046
  19.080	     83.33	    26.352
  19.100	     91.67	    27.639
  19.120	    100.00	    28.868
  19.140	    116.67	    31.180
  19.160	     33.33	    16.667
  19.180	    108.33	    30.046
  19.200	     91.67	    27.639
  19.220	    100.00	    28.868
  19.240	     83.33	    26.352
  19.260	     41.67	    18.634
  19.280	     66.67	    23.570
  19.300	     75.00	    25.000
  19.320	    133.33	    33.333
  19.340	    116.67	    31.180
  19.360	     91.67	    27.639
  19.380	    125.00	    32.275
  19.400	     66.67	    23.570
  19.420	     58.33	    22.048
  19.440	    108.33	    30.046
  19.460	    133.33	    33.333
  19.480	     41.67	    18.634
  19.500	     83.33	    26.352
  19.520	     33.33	    16.667
  19.540	    141.67	    34.359
  19.560	     58.33	    22.048
  19.580	     66.67	    23.570
  19.600	    108.33	    30.046
  19.620	    108.33	    30.046
  19.640	     91.67	    27.639
  19.660	     83.33	    26.352
  19.680	     66.67	    23.570
  19.700	     66.67	    23.570
  19.720	     58.33	    22.048
  19.740	    108.33	    30.046
  19.760	     58.33	    22.048
  19.780	     58.33	    22.048
  19.800	     75.00	    25.000
  19.820	     58.33	    22.048
  19.840	     83.33	    26.352
  19.860	    108.33	    30.046
  19.880	     83.33	    26.352
  19.900	     58.33	    22.048
  19.920	    108.33	    30.046
  19.940	    150.00	    35.355
  19.960	     91.67	    27.639
  19.980	    158.33	    36.324
  20.000	    141.67	    34.359
  20.020	     33.33	    16.667
  20.040	     91.67	    27.639
  20.060	     83.33	    26.352
  20.080	     58.33	    22.048
  20.100	    166.67	    37.268
  20.120	     91.67	    27.639
  20.140	     75.00	    25.000
  20.160	    116.67	    31.180
  20.180	     75.00	    25.000
  20.200	     75.00	    25.000
  20.220	     83.33	    26.352
  20.240	     33.33	    16.667
  20.260	    108.33	    30.046
  20.280	     83.33	    26.352
  20.300	     75.00	    25.000
  20.320	     58.33	    22.048
  20.340	    125.00	    32.275
  20.360	    166.67	    37.268
  20.380	    108.33	    30.046
  20.400	     75.00	    25.000
  20.420	     75.00	    25.000
  20.440	    108.33	    30.046
  20.460	     83.33	    26.352
  20.480	     66.67	    23.570
  20.500	    108.33	    30.046
  20.520	     50.00	    20.412
  20.540	     66.67	    23.570
  20.560	     91.67	    27.639
  20.580	    116.67	    31.180
  20.600	    108.33	    30.046
  20.620	     91.67	    27.639
  20.640	    125.00	    32.275
  20.660	    108.33	    30.046
  20.680	    125.00	    32.275
  20.700	     58.33	    22.048
  20.720	    100.00	    28.868
  20.740	     16.67	    11.785
  20.760	    133.33	    33.333
  20.780	     83.33	    26.352
  20.800	     75.00	    25.000
  20.820	     83.33	    26.352
  20.840	    108.33	    30.046
  20.860	     66.67	    23.570
  20.880	    150.00	    35.355
  20.900	    100.00	    28.868
  20.920	     91.67	    27.639
  20.940	     83.33	    26.352
  20.960	     50.00	    20.412
  20.980	     91.67	    27.639
  21.000	     91.67	    27.639
  21.020	    100.00	    28.868
  21.040	     75.00	    25.000
  21.060	    116.67	    31.180
  21.080	     58.33	    22.048
  21.100	     50.00	    20.412
  21.120	     83.33	    26.352
  21.140	     83.33	    26.352
  21.160	    100.00	    28.868
  21.180	     91.67	    27.639
  21.200	     41.67	    18.634
  21.220	    108.33	    30.046
  21.240	     75.00	    25.000
  21.260	    141.67	    34.359
  21.280	     75.00	    25.000
  21.300	     41.67	    18.634
  21.320	     91.67	    27.639
  21.340	    108.33	    30.046
  21.360	     91.67	    27.639
  21.380	     83.33	    26.352
  21.400	     58.33	    22.048
  21.420	     83.33	    26.352
  21.440	    108.33	    30.046
  21.460	     75.00	    25.000
  21.480	     75.00	    25.000
  21.500	    100.00	    28.868
  21.520	     91.67	    27.639
  21.540	     91.67	    27.639
  21.560	    108.33	    30.046
  21.580	    116.67	    31.180
  21.600	     91.67	    27.639
  21.620	     66.67	    23.570
  21.640	    100.00	    28.868
  21.660	    100.00	    28.868
  21.680	    125.00	    32.275
  21.700	    108.33	    30.046
  21.720	     75.00	    25.000
  21.740	    100.00	    28.868
  21.760	    108.33	    30.046
  21.780	     91.67	    27.639
  21.800	    100.00	    28.868
  21.820	    100.00	    28.868
  21.840	     91.67	    27.639
  21.860	    116.67	    31.180
  21.880	    108.33	    30.046
  21.900	     50.00	    20.412
  21.920	     91.67	    27.639
  21.940	     66.67	    23.570
  21.960	    116.67	    31.180
  21.980	     50.00	    20.412
  22.000	     33.33	    16.667
  22.020	    125.00	    32.275
  22.040	     75.00	    25.000
  22.060	    100.00	    28.868
  22.080	    125.00	    32.275
  22.100	     50.00	    20.412
  22.120	     58.33	    22.048
  22.140	     75.00	    25.000
  22.160	    141.67	    34.359
  22.180	     58.33	    22.048
  22.200	     50.00	    20.412
  22.220	     75.00	    25.000
  22.240	    133.33	    33.333
  22.260	    116.67	    31.180
  22.280	     50.00	    20.412
  22.300	     66.67	    23.570
  22.320	     91.67	    27.639
  22.340	     75.00	    25.000
  22.360	    100.00	    28.868
  22.380	    125.00	    32.275
  22.400	    141.67	    34.359
  22.420	     50.00	    20.412
  22.440	     41.67	    18.634
  22.460	     83.33	    26.352
  22.480	     83.33	    26.352
  22.500	    116.67	    31.180
  22.520	     83.33	    26.352
  22.540	     83.33	    26.352
  22.560	     83.33	    26.352
  22.580	    108.33	    30.046
  22.600	    100.00	    28.868
  22.620	     75.00	    25.000
  22.640	     75.00	    25.000
  22.660	     75.00	    25.000
  22.680	     83.33	    26.352
  22.700	     58.33	    22.048
  22.720	     66.67	    23.570
  22.740	    100.00	    28.868
  22.760	    108.33	    30.046
  22.780	     58.33	    22.048
  22.800	    100.00	    28.868
  22.820	     50.00	    20.412
  22.840	     91.67	    27.639
  22.860	    100.00	    28.868
  22.880	     91.67	    27.639
  22.900	     83.33	    26.352
  22.920	     58.33	    22.048
  22.940	    116.67	    31.180
  22.960	     58.33	    22.048
  22.980	    100.00	    28.868
  23.000	    116.67	    31.180
  23.020	     50.00	    20.412
  23.040	     83.33	    26.352
  23.060	     75.00	    25.000
  23.080	    125.00	    32.275
  23.100	     83.33	    26.352
  23.120	    125.00	    32.275
  23.140	    158.33	    36.324
  23.160	    100.00	    28.868
  23.180	    100.00	    28.868
  23.200	    108.33	    30.046
  23.220	     91.67	    27.639
  23.240	     66.67	    23.570
  23.260	     83.33	    26.352
  23.280	    125.00	    32.275
  23.300	     41.67	    18.634
  23.320	    100.00	    28.868
  23.340	     58.33	    22.048
  23.360	     75.00	    25.000
  23.380	     91.67	    27.639
  23.400	     50.00	    20.412
  23.420	    100.00	    28.868
  23.440	    108.33	    30.046
  23.460	     41.67	    18.634
  23.480	     33.33	    16.667
  23.500	    141.67	    34.359
  23.520	     25.00	    14.434
  23.540	     66.67	    23.570
  23.560	    100.00	    28.868
  23.580	     91.67	    27.639
  23.600	     83.33	    26.352
  23.620	     58.33	    22.048
  23.640	    108.33	    30.046
  23.660	    116.67	    31.180
  23.680	     41.67	    18.634
  23.700	    100.00	    28.868
  23.720	     58.33	    22.048
  23.740	     91.67	    27.639
  23.760	     58.33	    22.048
  23.780	     66.67	    23.570
  23.800	     41.67	    18.634
  23.820	     58.33	    22.048
  23.840	     75.00	    25.000
  23.860	     83.33	    26.352
  23.880	    100.00	    28.868
  23.900	     75.00	    25.000
  23.920	     41.67	    18.634
  23.940	     33.33	    16.667
  23.960	     83.33	    26.352
  23.980	    100.00	    28.868
  24.000	     75.00	    25.000
  24.020	     75.00	    25.000
  24.040	    116.67	    31.180
  24.060	     50.00	    20.412
  24.080	    108.33	    30.046
  24.100	    141.67	    34.359
  24.120	     75.00	    25.000
  24.140	     58.33	    22.048
  24.160	     33.33	    16.667
  24.180	     41.67	    18.634
  24.200	     50.00	    20.412
  24.220	     33.33	    16.667
  24.240	     83.33	    26.352
  24.260	     50.00	    20.412
  24.280	     75.00	    25.000
  24.300	     66.67	    23.570
  24.320	     75.00	    25.000
  24.340	    100.00	    28.868
  24.360	     75.00	    25.000
  24.380	    108.33	    30.046
  24.400	     66.67	    23.570
  24.420	    125.00	    32.275
  24.440	     75.00	    25.000
  24.460	     41.67	    18.634
  24.480	     91.67	    27.639
  24.500	     66.67	    23.570
  24.520	    125.00	    32.275
  24.540	     66.67	    23.570
  24.560	     58.33	    22.048
  24.580	     66.67	    23.570
  24.600	     33.33	    16.667
  24.620	     91.67	    27.639
  24.640	     66.67	    23.570
  24.660	     41.67	    18.634
  24.680	     41.67	    18.634
  24.700	     41.67	    18.634
  24.720	    108.33	    30.046
  24.740	     75.00	    25.000
  24.760	     75.00	    25.000
  24.780	     75.00	    25.000
  24.800	     50.00	    20.412
  24.820	    100.00	    28.868
  24.840	     75.00	    25.000
  24.860	     33.33	    16.667
  24.880	     50.00	    20.412
  24.900	     58.33	    22.048
  24.920	     58.33	    22.048
  24.940	    100.00	    28.868
  24.960	     58.33	    22.048
  24.980	     41.67	    18.634
  25.000	     58.33	    22.048
  25.020	     66.67	    23.570
  25.040	     75.00	    25.000
  25.060	     41.67	    18.634
  25.080	     58.33	    22.048
  25.100	     75.00	    25.000
  25.120	     58.33	    22.048
  25.140	     66.67	    23.570
  25.160	     33.33	    16.667
  25.180	     41.67	    18.634
  25.200	     66.67	    23.570
  25.220	     58.33	    22.048
  25.240	     33.33	    16.667
  25.260	     50.00	    20.412
  25.280	     58.33	    22.048
  25.300	     83.33	    26.352
  25.320	     41.67	    18.634
  25.340	     66.67	    23.570
  25.360	     41.67	    18.634
  25.380	     75.00	    25.000
  25.400	     75.00	    25.000
  25.420	     83.33	    26.352
  25.440	     66.67	    23.570
  25.460	     66.67	    23.570
  25.480	     75.00	    25.000
  25.500	     58.33	    22.048
  25.520	     83.33	    26.352
  25.540	     75.00	    25.000
  25.560	     91.67	    27.639
  25.580	     58.33	    22.048
  25.600	     91.67	    27.639
  25.620	     66.67	    23.570
  25.640	     91.67	    27.639
  25.660	    116.67	    31.180
  25.680	     33.33	    16.667
  25.700	     58.33	    22.048
  25.720	     75.00	    25.000
  25.740	     91.67	    27.639
  25.760	     83.33	    26.352
  25.780	     25.00	    14.434
  25.800	    100.00	    28.868
  25.820	     75.00	    25.000
  25.840	     58.33	    22.048
  25.860	     75.00	    25.000
  25.880	     50.00	    20.412
  25.900	     75.00	    25.000
  25.920	     50.00	    20.412
  25.940	     41.67	    18.634
  25.960	     83.33	    26.352
  25.980	    100.00	    28.868
  26.000	     58.33	    22.048
  26.020	     41.67	    18.634
  26.040	     50.00	    20.412
  26.060	     41.67	    18.634
  26.080	     41.67	    18.634
  26.100	     50.00	    20.412
  26.120	     91.67	    27.639
  26.140	     50.00	    20.412
  26.160	     25.00	    14.434
  26.180	    108.33	    30.046
  26.200	     83.33	    26.352
  26.220	     41.67	    18.634
  26.240	     25.00	    14.434
  26.260	     75.00	    25.000
  26.280	     50.00	    20.412
  26.300	     41.67	    18.634
  26.320	     58.33	    22.048
  26.340	     58.33	    22.048
  26.360	     66.67	    23.570
  26.380	     66.67	    23.570
  26.400	     75.00	    25.000
  26.420	     83.33	    26.352
  26.440	     41.67	    18.634
  26.460	     50.00	    20.412
  26.480	     41.67	    18.634
  26.500	     41.67	    18.634
  26.520	     41.67	    18.634
  26.540	     41.67	    18.634
  26.560	     66.67	    23.570
  26.580	     83.33	    26.352
  26.600	     75.00	    25.000
  26.620	     50.00	    20.412
  26.640	     33.33	    16.667
  26.660	     41.67	    18.634
  26.680	    108.33	    30.046
  26.700	     33.33	    16.667
  26.720	     58.33	    22.048
  26.740	     41.67	    18.634
  26.760	     33.33	    16.667
  26.780	     91.67	    27.639
  26.800	     33.33	    16.667
  26.820	     58.33	    22.048
  26.840	     66.67	    23.570
  26.860	     91.67	    27.639
  26.880	     66.67	    23.570
  26.900	     66.67	    23.570
  26.920	     75.00	    25.000
  26.940	     58.33	    22.048
  26.960	     41.67	    18.634
  26.980	     33.33	    16.667
  27.000	     16.67	    11.785
  27.020	     25.00	    14.434
  27.040	     58.33	    22.048
  27.060	     50.00	    20.412
  27.080	     33.33	    16.667
  27.100	     50.00	    20.412
  27.120	     58.33	    22.048
  27.140	     50.00	    20.412
  27.160	     25.00	    14.434
  27.180	     41.67	    18.634
  27.200	     50.00	    20.412
  27.220	     75.00	    25.000
  27.240	     75.00	    25.000
  27.260	     50.00	    20.412
  27.280	     58.33	    22.048
  27.300	     25.00	    14.434
  27.320	     41.67	    18.634
  27.340	     66.67	    23.570
  27.360	     50.00	    20.412
  27.380	     66.67	    23.570
  27.400	     50.00	    20.412
  27.420	     33.33	    16.667
  27.440	     41.67	    18.634
  27.460	     75.00	    25.000
  27.480	     66.67	    23.570
  27.500	     66.67	    23.570
  27.520	     75.00	    25.000
  27.540	     41.67	    18.634
  27.560	    100.00	    28.868
  27.580	     66.67	    23.570
  27.600	     41.67	    18.634
  27.620	     58.33	    22.048
  27.640	     58.33	    22.048
  27.660	     75.00	    25.000
  27.680	    116.67	    31.180
  27.700	     33.33	    16.667
  27.720	     50.00	    20.412
  27.740	     75.00	    25.000
  27.760	     75.00	    25.000
  27.780	     25.00	    14.434
  27.800	     41.67	    18.634
  27.820	     33.33	    16.667
  27.840	     41.67	    18.634
  27.860	     75.00	    25.000
  27.880	     41.67	    18.634
  27.900	     50.00	    20.412
  27.920	     66.67	    23.570
  27.940	     66.67	    23.570
  27.960	     50.00	    20.412
  27.980	     33.33	    16.667
  28.000	     25.00	    14.434
  28.020	     50.00	    20.412
  28.040	     58.33	    22.048
  28.060	     33.33	    16.667
  28.080	     58.33	    22.048
  28.100	     41.67	    18.634
  28.120	      8.33	     8.333
  28.140	     50.00	    20.412
  28.160	    100.00	    28.868
  28.180	     58.33	    22.048
  28.200	     25.00	    14.434
  28.220	     50.00	    20.412
  28.240	     25.00	    14.434
  28.260	     50.00	    20.412
  28.280	     41.67	    18.634
  28.300	     41.67	    18.634
  28.320	     25.00	    14.434
  28.340	     50.00	    20.412
  28.360	     16.67	    11.785
  28.380	     41.67	    18.634
  28.400	     41.67	    18.634
  28.420	     16.67	    11.785
  28.440	     33.33	    16.667
  28.460	     50.00	    20.412
  28.480	     58.33	    22.048
  28.500	     50.00	    20.412
  28.520	     66.67	    23.570
  28.540	     66.67	    23.570
  28.560	     41.67	    18.634
  28.580	     41.67	    18.634
  28.600	     58.33	    22.048
  28.620	     41.67	    18.634
  28.640	      8.33	     8.333
  28.660	     33.33	    16.667
  28.680	     41.67	    18.634
  28.700	     33.33	    16.667
  28.720	     50.00	    20.412
  28.740	     50.00	    20.412
  28.760	     50.00	    20.412
  28.780	     25.00	    14.434
  28.800	     41.67	    18.634
  28.820	     83.33	    26.352
  28.840	     25.00	    14.434
  28.860	     50.00	    20.412
  28.880	     33.33	    16.667
  28.900	     33.33	    16.667
  28.920	     25.00	    14.434
  28.940	     41.67	    18.634
  28.960	     75.00	    25.000
  28.980	     41.67	    18.634
  29.000	     50.00	    20.412
  29.020	     41.67	    18.634
  29.040	     16.67	    11.785
  29.060	     91.67	    27.639
  29.080	     41.67	    18.634
  29.100	     75.00	    25.000
  29.120	     41.67	    18.634
  29.140	     25.00	    14.434
  29.160	     50.00	    20.412
  29.180	     25.00	    14.434
  29.200	     33.33	    16.667
  29.220	     50.00	    20.412
  29.240	     25.00	    14.434
  29.260	     16.67	    11.785
  29.280	     50.00	    20.412
  29.300	     33.33	    16.667
  29.320	     41.67	    18.634
  29.340	     16.67	    11.785
  29.360	     50.00	    20.412
  29.380	     33.33	    16.667
  29.400	     16.67	    11.785
  29.420	     50.00	    20.412
  29.440	     25.00	    14.434
  29.460	     58.33	    22.048
  29.480	     66.67	    23.570
  29.500	     41.67	    18.634
  29.520	     66.67	    23.570
  29.540	     33.33	    16.667
  29.560	     25.00	    14.434
  29.580	     25.00	    14.434
  29.600	     41.67	    18.634
  29.620	     50.00	    20.412
  29.640	     25.00	    14.434
  29.660	     58.33	    22.048
  29.680	     33.33	    16.667
  29.700	     41.67	    18.634
  29.720	     33.33	    16.667
  29.740	     41.67	    18.634
  29.760	     50.00	    20.412
  29.780	     16.67	    11.785
  29.800	     33.33	    16.667
  29.820	     41.67	    18.634
  29.840	     25.00	    14.434
  29.860	     16.67	    11.785
  29.880	     16.67	    11.785
  29.900	     16.67	    11.785
  29.920	     58.33	    22.048
  29.940	     25.00	    14.434
  29.960	     16.67	    11.785
  29.980	     58.33	    22.048
  30.000	     25.00	    14.434
  30.020	     16.67	    11.785
  30.040	     50.00	    20.412
  30.060	     25.00	    14.434
  30.080	     41.67	    18.634
  30.100	     33.33	    16.667
  30.120	     25.00	    14.434
  30.140	     33.33	    16.667
  30.160	     66.67	    23.570
  30.180	     33.33	    16.667
  30.200	     83.33	    26.352
  30.220	     58.33	    22.048
  30.240	      8.33	     8.333
  30.260	     50.00	    20.412
  30.280	     50.00	    20.412
  30.300	     41.67	    18.634
  30.320	     16.67	    11.785
  30.340	     50.00	    20.412
  30.360	     25.00	    14.434
  30.380	     58.33	    22.048
  30.400	     16.67	    11.785
  30.420	     50.00	    20.412
  30.440	     41.67	    18.634
  30.460	     50.00	    20.412
  30.480	     33.33	    16.667
  30.500	     58.33	    22.048
  30.520	     25.00	    14.434
  30.540	      8.33	     8.333
  30.560	     33.33	    16.667
  30.580	     33.33	    16.667
  30.600	     41.67	    18.634
  30.620	     25.00	    14.434
  30.640	     75.00	    25.000
  30.660	     25.00	    14.434
  30.680	     33.33	    16.667
  30.700	     25.00	    14.434
  30.720	     50.00	    20.412
  30.740	     33.33	    16.667
  30.760	     50.00	    20.412
  30.780	     50.00	    20.412
  30.800	     41.67	    18.634
  30.820	     16.67	    11.785
  30.840	     41.67	    18.634
  30.860	     41.67	    18.634
  30.880	     16.67	    11.785
  30.900	     41.67	    18.634
  30.920	     25.00	    14.434
  30.940	     33.33	    16.667
  30.960	      8.33	     8.333
  30.980	     41.67	    18.634
  31.000	     25.00	    14.434
  31.020	     50.00	    20.412
  31.040	     33.33	    16.667
  31.060	     25.00	    14.434
  31.080	     41.67	    18.634
  31.100	     41.67	    18.634
  31.120	     41.67	    18.634
  31.140	     25.00	    14.434
  31.160	     16.67	    11.785
  31.180	     33.33	    16.667
  31.200	     25.00	    14.434
  31.220	     33.33	    16.667
  31.240	     16.67	    11.785
  31.260	     33.33	    16.667
  31.280	     25.00	    14.434
  31.300	      8.33	     8.333
  31.320	     33.33	    16.667
  31.340	     25.00	    14.434
  31.360	     41.67	    18.634
  31.380	     33.33	    16.667
  31.400	     33.33	    16.667
  31.420	     50.00	    20.412
  31.440	     33.33	    16.667
  31.460	     41.67	    18.634
  31.480	     33.33	    16.667
  31.500	     25.00	    14.434
  31.520	     25.00	    14.434
  31.540	     25.00	    14.434
  31.560	     33.33	    16.667
  31.580	     41.67	    18.634
  31.600	     16.67	    11.785
  31.620	     50.00	    20.412
  31.640	      8.33	     8.333
  31.660	     16.67	    11.785
  31.680	     41.67	    18.634
  31.700	     41.67	    18.634
  31.720	     33.33	    16.667
  31.740	     50.00	    20.412
  31.760	     25.00	    14.434
  31.780	     50.00	    20.412
  31.800	     66.67	    23.570
  31.820	      8.33	     8.333
  31.840	     41.67	    18.634
  31.860	     50.00	    20.412
  31.880	     41.67	    18.634
  31.900	     66.67	    23.570
  31.920	     33.33	    16.667
  31.940	     25.00	    14.434
  31.960	     25.00	    14.434
  31.980	     16.67	    11.785
  32.000	     16.67	    11.785
  32.020	     41.67	    18.634
  32.040	      8.33	     8.333
  32.060	     25.00	    14.434
  32.080	     50.00	    20.412
  32.100	     66.67	    23.570
  32.120	      8.33	     8.333
  32.140	     41.67	    18.634
  32.160	     50.00	    20.412
  32.180	     25.00	    14.434
  32.200	     16.67	    11.785
  32.220	     50.00	    20.412
  32.240	     33.33	    16.667
  32.260	     16.67	    11.785
  32.280	     33.33	    16.667
  32.300	     41.67	    18.634
  32.320	     25.00	    14.434
  32.340	     58.33	    22.048
  32.360	     25.00	    14.434
  32.380	     33.33	    16.667
  32.400	      8.33	     8.333
  32.420	      8.33	     8.333
  32.440	     66.67	    23.570
  32.460	     66.67	    23.570
  32.480	     41.67	    18.634
  32.500	     66.67	    23.570
  32.520	     25.00	    14.434
  32.540	     66.67	    23.570
  32.560	     25.00	    14.434
  32.580	     33.33	    16.667
  32.600	     33.33	    16.667
  32.620	     58.33	    22.048
  32.640	     25.00	    14.434
  32.660	     16.67	    11.785
  32.680	     16.67	    11.785
  32.700	     50.00	    20.412
  32.720	     41.67	    18.634
  32.740	     25.00	    14.434
  32.760	     41.67	    18.634
  32.780	     25.00	    14.434
  32.800	     58.33	    22.048
  32.820	     50.00	    20.412
  32.840	     25.00	    14.434
  32.860	     25.00	    14.434
  32.880	     50.00	    20.412
  32.900	     16.67	    11.785
  32.920	      8.33	     8.333
  32.940	     33.33	    16.667
  32.960	     25.00	    14.434
  32.980	     33.33	    16.667
  33.000	     41.67	    18.634
  33.020	     75.00	    25.000
  33.040	     41.67	    18.634
  33.060	     16.67	    11.785
  33.080	     25.00	    14.434
  33.100	     25.00	    14.434
  33.120	     25.00	    14.434
  33.140	     25.00	    14.434
  33.160	     25.00	    14.434
  33.180	      8.33	     8.333
  33.200	      8.33	     8.333
  33.220	     58.33	    22.048
  33.240	     33.33	    16.667
  33.260	     33.33	    16.667
  33.280	     33.33	    16.667
  33.300	     25.00	    14.434
  33.320	     41.67	    18.634
  33.340	     75.00	    25.000
  33.360	     33.33	    16.667
  33.380	     58.33	    22.048
  33.400	     25.00	    14.434
  33.420	     25.00	    14.434
  33.440	     25.00	    14.434
  33.460	     75.00	    25.000
  33.480	     33.33	    16.667
  33.500	     75.00	    25.000
  33.520	     33.33	    16.667
  33.540	     33.33	    16.667
  33.560	     33.33	    16.667
  33.580	     50.00	    20.412
  33.600	     50.00	    20.412
  33.620	     25.00	    14.434
  33.640	     25.00	    14.434
  33.660	     58.33	    22.048
  33.680	     41.67	    18.634
  33.700	     33.33	    16.667
  33.720	     50.00	    20.412
  33.740	     25.00	    14.434
  33.760	     25.00	    14.434
  33.780	      8.33	     8.333
  33.800	     25.00	    14.434
  33.820	     50.00	    20.412
  33.840	     41.67	    18.634
  33.860	     33.33	    16.667
  33.880	     50.00	    20.412
  33.900	     50.00	    20.412
  33.920	     16.67	    11.785
  33.940	     50.00	    20.412
  33.960	     25.00	    14.434
  33.980	     16.67	    11.785
  34.000	     50.00	    20.412
  34.020	     33.33	    16.667
  34.040	     16.67	    11.785
  34.060	     16.67	    11.785
  34.080	      8.33	     8.333
  34.100	     41.67	    18.634
  34.120	     41.67	    18.634
  34.140	     33.33	    16.667
  34.160	      8.33	     8.333
  34.180	     16.67	    11.785
  34.200	     25.00	    14.434
  34.220	     16.67	    11.785
  34.240	     16.67	    11.785
  34.260	     41.67	    18.634
  34.280	      8.33	     8.333
  34.300	     41.67	    18.634
  34.320	     25.00	    14.434
  34.340	     58.33	    22.048
  34.360	     41.67	    18.634
  34.380	     33.33	    16.667
  34.400	      8.33	     8.333
  34.420	     50.00	    20.412
  34.440	     33.33	    16.667
  34.460	     25.00	    14.434
  34.480	     50.00	    20.412
  34.500	     16.67	    11.785
  34.520	      8.33	     8.333
  34.540	     16.67	    11.785
  34.560	     41.67	    18.634
  34.580	     41.67	    18.634
  34.600	     41.67	    18.634
  34.620	     75.00	    25.000
  34.640	      8.33	     8.333
  34.660	     25.00	    14.434
  34.680	     25.00	    14.434
  34.700	     16.67	    11.785
  34.720	     41.67	    18.634
  34.740	     33.33	    16.667
  34.760	     33.33	    16.667
  34.780	     33.33	    16.667
  34.800	     25.00	    14.434
  34.820	     25.00	    14.434
  34.840	     25.00	    14.434
  34.860	     41.67	    18.634
  34.880	     41.67	    18.634
  34.900	     25.00	    14.434
  34.920	     50.00	    20.412
  34.940	     41.67	    18.634
  34.960	     16.67	    11.785
  34.980	     25.00	    14.434
  35.000	     33.33	    16.667
  35.020	     16.67	    11.785
  35.040	     25.00	    14.434
  35.060	     25.00	    14.434
  35.080	     25.00	    14.434
  35.100	     25.00	    14.434
  35.120	     33.33	    16.667
  35.140	     33.33	    16.667
  35.160	     16.67	    11.785
  35.180	     41.67	    18.634
  35.200	     41.67	    18.634
  35.220	     16.67	    11.785
  35.240	     25.00	    14.434
  35.260	     41.67	    18.634
  35.280	     50.00	    20.412
  35.300	     66.67	    23.570
  35.320	     25.00	    14.434
  35.340	     66.67	    23.570
  35.360	     50.00	    20.412
  35.380	     50.00	    20.412
  35.400	     50.00	    20.412
  35.420	     33.33	    16.667
  35.440	     33.33	    16.667
  35.460	     25.00	    14.434
  35.480	     41.67	    18.634
  35.500	     33.33	    16.667
  35.520	     25.00	    14.434
  35.540	     41.67	    18.634
  35.560	     41.67	    18.634
  35.580	      8.33	     8.333
  35.600	     16.67	    11.785
  35.620	     50.00	    20.412
  35.640	     16.67	    11.785
  35.660	     25.00	    14.434
  35.680	     25.00	    14.434
  35.700	      8.33	     8.333
  35.720	      8.33	     8.333
  35.740	     25.00	    14.434
  35.760	     16.67	    11.785
  35.780	      8.33	     8.333
  35.800	     33.33	    16.667
  35.820	     33.33	    16.667
  35.840	     41.67	    18.634
  35.860	     16.67	    11.785
  35.880	      8.33	     8.333
  35.900	     25.00	    14.434
  35.920	     58.33	    22.048
  35.940	     16.67	    11.785
  35.960	     25.00	    14.434
  35.980	     16.67	    11.785
  36.000	      0.00	     0.000
  36.020	     41.67	    18.634
  36.040	     16.67	    11.785
  36.060	     41.67	    18.634
  36.080	     33.33	    16.667
  36.100	      8.33	     8.333
  36.120	     25.00	    14.434
  36.140	     41.67	    18.634
  36.160	     25.00	    14.434
  36.180	     25.00	    14.434
  36.200	     16.67	    11.785
  36.220	     41.67	    18.634
  36.240	     50.00	    20.412
  36.260	     58.33	    22.048
  36.280	     66.67	    23.570
  36.300	     41.67	    18.634
  36.320	     50.00	    20.412
  36.340	     91.67	    27.639
  36.360	     33.33	    16.667
  36.380	    100.00	    28.868
  36.400	     66.67	    23.570
  36.420	     50.00	    20.412
  36.440	    108.33	    30.046
  36.460	    116.67	    31.180
  36.480	     41.67	    18.634
  36.500	    133.33	    33.333
  36.520	     91.67	    27.639
  36.540	     66.67	    23.570
  36.560	     83.33	    26.352
  36.580	     58.33	    22.048
  36.600	     75.00	    25.000
  36.620	     41.67	    18.634
  36.640	     33.33	    16.667
  36.660	     41.67	    18.634
  36.680	     25.00	    14.434
  36.700	     58.33	    22.048
  36.720	     25.00	    14.434
  36.740	     16.67	    11.785
  36.760	     25.00	    14.434
  36.780	     16.67	    11.785
  36.800	     16.67	    11.785
  36.820	     16.67	    11.785
  36.840	     16.67	    11.785
  36.860	     25.00	    14.434
  36.880	     83.33	    26.352
  36.900	     75.00	    25.000
  36.920	     33.33	    16.667
  36.940	     16.67	    11.785
  36.960	     25.00	    14.434
  36.980	     33.33	    16.667
  37.000	     33.33	    16.667
  37.020	     58.33	    22.048
  37.040	     16.67	    11.785
  37.060	     41.67	    18.634
  37.080	     33.33	    16.667
  37.100	     33.33	    16.667
  37.120	     75.00	    25.000
  37.140	     16.67	    11.785
  37.160	     41.67	    18.634
  37.180	     16.67	    11.785
  37.200	     50.00	    20.412
  37.220	     33.33	    16.667
  37.240	     16.67	    11.785
  37.260	     58.33	    22.048
  37.280	     33.33	    16.667
  37.300	     41.67	    18.634
  37.320	     16.67	    11.785
  37.340	     41.67	    18.634
  37.360	     16.67	    11.785
  37.380	     16.67	    11.785
  37.400	     66.67	    23.570
  37.420	      8.33	     8.333
  37.440	     25.00	    14.434
  37.460	     25.00	    14.434
  37.480	     16.67	    11.785
  37.500	     75.00	    25.000
  37.520	     58.33	    22.048
  37.540	     75.00	    25.000
  37.560	     25.00	    14.434
  37.580	     41.67	    18.634
  37.600	     50.00	    20.412
  37.620	      8.33	     8.333
  37.640	     33.33	    16.667
  37.660	     41.67	    18.634
  37.680	     16.67	    11.785
  37.700	     58.33	    22.048
  37.720	     41.67	    18.634
  37.740	     41.67	    18.634
  37.760	     33.33	    16.667
  37.780	     41.67	    18.634
  37.800	     50.00	    20.412
  37.820	     41.67	    18.634
  37.840	      8.33	     8.333
  37.860	     41.67	    18.634
  37.880	     25.00	    14.434
  37.900	     16.67	    11.785
  37.920	      0.00	     0.000
  37.940	     41.67	    18.634
  37.960	     25.00	    14.434
  37.980	      8.33	     8.333
  38.000	     33.33	    16.667
  38.020	     33.33	    16.667
  38.040	     33.33	    16.667
  38.060	     33.33	    16.667
  38.080	     25.00	    14.434
  38.100	     50.00	    20.412
  38.120	     33.33	    16.667
  38.140	     25.00	    14.434
  38.160	     25.00	    14.434
  38.180	     50.00	    20.412
  38.200	     33.33	    16.667
  38.220	     25.00	    14.434
  38.240	     16.67	    11.785
  38.260	     16.67	    11.785
  38.280	     33.33	    16.667
  38.300	     33.33	    16.667
  38.320	     41.67	    18.634
  38.340	     50.00	    20.412
  38.360	     25.00	    14.434
  38.380	      8.33	     8.333
  38.400	     50.00	    20.412
  38.420	     33.33	    16.667
  38.440	     25.00	    14.434
  38.460	     25.00	    14.434
  38.480	     16.67	    11.785
  38.500	     58.33	    22.048
  38.520	      8.33	     8.333
  38.540	      8.33	     8.333
  38.560	     33.33	    16.667
  38.580	     41.67	    18.634
  38.600	     66.67	    23.570
  38.620	     16.67	    11.785
  38.640	     41.67	    18.634
  38.660	     50.00	    20.412
  38.680	     16.67	    11.785
  38.700	     25.00	    14.434
  38.720	      8.33	     8.333
  38.740	     33.33	    16.667
  38.760	     25.00	    14.434
  38.780	     25.00	    14.434
  38.800	     91.67	    27.639
  38.820	     33.33	    16.667
  38.840	     33.33	    16.667
  38.860	      0.00	     0.000
  38.880	     41.67	    18.634
  38.900	     33.33	    16.667
  38.920	     33.33	    16.667
  38.940	     33.33	    16.667
  38.960	     33.33	    16.667
  38.980	     41.67	    18.634
  39.000	     41.67	    18.634
  39.020	     33.33	    16.667
  39.040	     25.00	    14.434
  39.060	     41.67	    18.634
  39.080	     58.33	    22.048
  39.100	     16.67	    11.785
  39.120	     66.67	    23.570
  39.140	     66.67	    23.570
  39.160	     83.33	    26.352
  39.180	     50.00	    20.412
  39.200	     41.67	    18.634
  39.220	     41.67	    18.634
  39.240	     66.67	    23.570
  39.260	     50.00	    20.412
  39.280	     50.00	    20.412
  39.300	     66.67	    23.570
  39.320	     66.67	    23.570
  39.340	     50.00	    20.412
  39.360	     41.67	    18.634
  39.380	     75.00	    25.000
  39.400	     50.00	    20.412
  39.420	     50.00	    20.412
  39.440	     66.67	    23.570
  39.460	     58.33	    22.048
  39.480	     66.67	    23.570
  39.500	     58.33	    22.048
  39.520	     33.33	    16.667
  39.540	     25.00	    14.434
  39.560	     16.67	    11.785
  39.580	     50.00	    20.412
  39.600	     66.67	    23.570
  39.620	     75.00	    25.000
  39.640	     50.00	    20.412
  39.660	      8.33	     8.333
  39.680	     83.33	    26.352
  39.700	     83.33	    26.352
  39.720	    100.00	    28.868
  39.740	    116.67	    31.180
  39.760	     58.33	    22.048
  39.780	     41.67	    18.634
  39.800	     58.33	    22.048
  39.820	     25.00	    14.434
  39.840	     66.67	    23.570
  39.860	     50.00	    20.412
  39.880	     66.67	    23.570
  39.900	     25.00	    14.434
  39.920	     66.67	    23.570
  39.940	     83.33	    26.352
  39.960	     50.00	    20.412
  39.980	     66.67	    23.570
  40.000	     83.33	    26.352
  40.020	     66.67	    23.570
  40.040	     83.33	    26.352
  40.060	     41.67	    18.634
  40.080	     66.67	    23.570
  40.100	    116.67	    31.180
  40.120	     75.00	    25.000
  40.140	     91.67	    27.639
  40.160	     66.67	    23.570
  40.180	    141.67	    34.359
  40.200	    175.00	    38.188
  40.220	    141.67	    34.359
  40.240	    275.00	    47.871
  40.260	    350.00	    54.006
  40.280	    516.67	    65.617
  40.300	    650.00	    73.598
  40.320	   1108.33	    96.105
  40.340	   1383.33	   107.367
  40.360	   1750.00	   120.761
  40.380	   2391.67	   141.176
  40.400	   2725.00	   150.693
  40.420	   3358.33	   167.290
  40.440	   3566.67	   172.401
  40.460	   4091.67	   184.654
  40.480	   4325.00	   189.846
  40.500	   4725.00	   198.431
  40.520	   5425.00	   212.623
  40.540	   5150.00	   207.163
  40.560	   4716.67	   198.256
  40.580	   4116.67	   185.218
  40.600	   4016.67	   182.954
  40.620	   3441.67	   169.353
  40.640	   2816.67	   153.206
  40.660	   2225.00	   136.168
  40.680	   1666.67	   117.851
  40.700	   1275.00	   103.078
  40.720	    875.00	    85.391
  40.740	    558.33	    68.211
  40.760	    375.00	    55.902
  40.780	    250.00	    45.644
  40.800	    133.33	    33.333
  40.820	    191.67	    39.965
  40.840	    108.33	    30.046
  40.860	     58.33	    22.048
  40.880	    125.00	    32.275
  40.900	     91.67	    27.639
  40.920	    108.33	    30.046
  40.940	    116.67	    31.180
  40.960	     66.67	    23.570
  40.980	     66.67	    23.570
  41.000	    108.33	    30.046
  41.020	    100.00	    28.868
  41.040	     58.33	    22.048
  41.060	     66.67	    23.570
  41.080	    100.00	    28.868
  41.100	     75.00	    25.000
  41.120	     58.33	    22.048
  41.140	     58.33	    22.048
  41.160	     58.33	    22.048
  41.180	     83.33	    26.352
  41.200	     58.33	    22.048
  41.220	     66.67	    23.570
  41.240	     41.67	    18.634
  41.260	     66.67	    23.570
  41.280	     66.67	    23.570
  41.300	     33.33	    16.667
  41.320	     83.33	    26.352
  41.340	     41.67	    18.634
  41.360	     33.33	    16.667
  41.380	     33.33	    16.667
  41.400	     41.67	    18.634
  41.420	     25.00	    14.434
  41.440	     25.00	    14.434
  41.460	     41.67	    18.634
  41.480	     75.00	    25.000
  41.500	     75.00	    25.000
  41.520	     33.33	    16.667
  41.540	     50.00	    20.412
  41.560	    116.67	    31.180
  41.580	     75.00	    25.000
  41.600	     33.33	    16.667
  41.620	     41.67	    18.634
  41.640	     58.33	    22.048
  41.660	     33.33	    16.667
  41.680	     16.67	    11.785
  41.700	     41.67	    18.634
  41.720	     50.00	    20.412
  41.740	     83.33	    26.352
  41.760	     33.33	    16.667
  41.780	     16.67	    11.785
  41.800	     75.00	    25.000
  41.820	     41.67	    18.634
  41.840	     33.33	    16.667
  41.860	     33.33	    16.667
  41.880	     33.33	    16.667
  41.900	     75.00	    25.000
  41.920	     58.33	    22.048
  41.940	     58.33	    22.048
  41.960	     25.00	    14.434
  41.980	     58.33	    22.048
  42.000	     41.67	    18.634
  42.020	     66.67	    23.570
  42.040	     50.00	    20.412
  42.060	     25.00	    14.434
  42.080	    100.00	    28.868
  42.100	     33.33	    16.667
  42.120	     41.67	    18.634
  42.140	     58.33	    22.048
  42.160	     16.67	    11.785
  42.180	     33.33	    16.667
  42.200	     58.33	    22.048
  42.220	     16.67	    11.785
  42.240	     41.67	    18.634
  42.260	     50.00	    20.412
  42.280	     41.67	    18.634
  42.300	     25.00	    14.434
  42.320	     75.00	    25.000
  42.340	      8.33	     8.333
  42.360	     33.33	    16.667
  42.380	     33.33	    16.667
  42.400	      8.33	     8.333
  42.420	     50.00	    20.412
  42.440	     50.00	    20.412
  42.460	     58.33	    22.048
  42.480	     50.00	    20.412
  42.500	     33.33	    16.667
  42.520	      0.00	     0.000
  42.540	     58.33	    22.048
  42.560	     25.00	    14.434
  42.580	     58.33	    22.048
  42.600	     41.67	    18.634
  42.620	     50.00	    20.412
  42.640	     50.00	    20.412
  42.660	     41.67	    18.634
  42.680	     33.33	    16.667
  42.700	     41.67	    18.634
  42.720	     33.33	    16.667
  42.740	     33.33	    16.667
  42.760	     75.00	    25.000
  42.780	     50.00	    20.412
  42.800	     41.67	    18.634
  42.820	     25.00	    14.434
  42.840	     33.33	    16.667
  42.860	     75.00	    25.000
  42.880	     16.67	    11.785
  42.900	     25.00	    14.434
  42.920	     91.67	    27.639
  42.940	     33.33	    16.667
  42.960	     25.00	    14.434
  42.980	     50.00	    20.412
  43.000	     50.00	    20.412
  43.020	     41.67	    18.634
  43.040	      8.33	     8.333
  43.060	     50.00	    20.412
  43.080	     50.00	    20.412
  43.100	      0.00	     0.000
  43.120	     25.00	    14.434
  43.140	     16.67	    11.785
  43.160	     41.67	    18.634
  43.180	     41.67	    18.634
  43.200	     41.67	    18.634
  43.220	     58.33	    22.048
  43.240	     41.67	    18.634
  43.260	     41.67	    18.634
  43.280	     33.33	    16.667
  43.300	     25.00	    14.434
  43.320	     25.00	    14.434
  43.340	     50.00	    20.412
  43.360	     50.00	    20.412
  43.380	     41.67	    18.634
  43.400	     16.67	    11.785
  43.420	     25.00	    14.434
  43.440	     33.33	    16.667
  43.460	     50.00	    20.412
  43.480	     41.67	    18.634
  43.500	     66.67	    23.570
  43.520	     41.67	    18.634
  43.540	     41.67	    18.634
  43.560	     41.67	    18.634
  43.580	      8.33	     8.333
  43.600	     41.67	    18.634
  43.620	     58.33	    22.048
  43.640	     33.33	    16.667
  43.660	     41.67	    18.634
  43.680	     33.33	    16.667
  43.700	     33.33	    16.667
  43.720	     33.33	    16.667
  43.740	     33.33	    16.667
  43.760	     41.67	    18.634
  43.780	     41.67	    18.634
  43.800	     33.33	    16.667
  43.820	      8.33	     8.333
  43.840	     41.67	    18.634
  43.860	     41.67	    18.634
  43.880	     33.33	    16.667
  43.900	     16.67	    11.785
  43.920	     25.00	    14.434
  43.940	     16.67	    11.785
  43.960	     33.33	    16.667
  43.980	     50.00	    20.412
  44.000	     33.33	    16.667
  44.020	     16.67	    11.785
  44.040	     16.67	    11.785
  44.060	     41.67	    18.634
  44.080	     58.33	    22.048
  44.100	     33.33	    16.667
  44.120	     41.67	    18.634
  44.140	     16.67	    11.785
  44.160	     75.00	    25.000
  44.180	     41.67	    18.634
  44.200	     58.33	    22.048
  44.220	     25.00	    14.434
  44.240	     66.67	    23.570
  44.260	     41.67	    18.634
  44.280	     41.67	    18.634
  44.300	     41.67	    18.634
  44.320	     41.67	    18.634
  44.340	     58.33	    22.048
  44.360	      0.00	     0.000
  44.380	     16.67	    11.785
  44.400	     83.33	    26.352
  44.420	     50.00	    20.412
  44.440	     50.00	    20.412
  44.460	     33.33	    16.667
  44.480	     41.67	    18.634
  44.500	    100.00	    28.868
  44.520	     50.00	    20.412
  44.540	     58.33	    22.048
  44.560	     41.67	    18.634
  44.580	     41.67	    18.634
  44.600	     50.00	    20.412
  44.620	     50.00	    20.412
  44.640	     58.33	    22.048
  44.660	     41.67	    18.634
  44.680	    100.00	    28.868
  44.700	     58.33	    22.048
  44.720	     33.33	    16.667
  44.740	     58.33	    22.048
  44.760	     58.33	    22.048
  44.780	     25.00	    14.434
  44.800	     16.67	    11.785
  44.820	      8.33	     8.333
  44.840	     41.67	    18.634
  44.860	     50.00	    20.412
  44.880	     41.67	    18.634
  44.900	     66.67	    23.570
  44.920	     33.33	    16.667
  44.940	     33.33	    16.667
  44.960	     16.67	    11.785
  44.980	     41.67	    18.634
  45.000	     25.00	    14.434
  45.020	     33.33	    16.667
  45.040	     33.33	    16.667
  45.060	      8.33	     8.333
  45.080	     25.00	    14.434
  45.100	     41.67	    18.634
  45.120	     25.00	    14.434
  45.140	     91.67	    27.639
  45.160	     50.00	    20.412
  45.180	     41.67	    18.634
  45.200	     75.00	    25.000
  45.220	     16.67	    11.785
  45.240	     33.33	    16.667
  45.260	     25.00	    14.434
  45.280	     66.67	    23.570
  45.300	     25.00	    14.434
  45.320	     41.67	    18.634
  45.340	     25.00	    14.434
  45.360	     25.00	    14.434
  45.380	     41.67	    18.634
  45.400	     50.00	    20.412
  45.420	     16.67	    11.785
  45.440	     41.67	    18.634
  45.460	     16.67	    11.785
  45.480	     25.00	    14.434
  45.500	     41.67	    18.634
  45.520	      8.33	     8.333
  45.540	     33.33	    16.667
  45.560	     25.00	    14.434
  45.580	     16.67	    11.785
  45.600	     50.00	    20.412
  45.620	     50.00	    20.412
  45.640	     25.00	    14.434
  45.660	     25.00	    14.434
  45.680	     25.00	    14.434
  45.700	     16.67	    11.785
  45.720	     58.33	    22.048
  45.740	     50.00	    20.412
  45.760	      8.33	     8.333
  45.780	     25.00	    14.434
  45.800	     50.00	    20.412
  45.820	     50.00	    20.412
  45.840	     16.67	    11.785
  45.860	     33.33	    16.667
  45.880	      8.33	     8.333
  45.900	     16.67	    11.785
  45.920	     58.33	    22.048
  45.940	     25.00	    14.434
  45.960	     25.00	    14.434
  45.980	     58.33	    22.048
  46.000	      8.33	     8.333
  46.020	     25.00	    14.434
  46.040	     41.67	    18.634
  46.060	      0.00	     0.000
  46.080	     41.67	    18.634
  46.100	     41.67	    18.634
  46.120	     41.67	    18.634
  46.140	     33.33	    16.667
  46.160	     25.00	    14.434
  46.180	     33.33	    16.667
  46.200	     25.00	    14.434
  46.220	     33.33	    16.667
  46.240	     16.67	    11.785
  46.260	     41.67	    18.634
  46.280	     58.33	    22.048
  46.300	     33.33	    16.667
  46.320	     33.33	    16.667
  46.340	     41.67	    18.634
  46.360	      8.33	     8.333
  46.380	     33.33	    16.667
  46.400	     16.67	    11.785
  46.420	     33.33	    16.667
  46.440	     58.33	    22.048
  46.460	     33.33	    16.667
  46.480	     16.67	    11.785
  46.500	     25.00	    14.434
  46.520	     50.00	    20.412
  46.540	     33.33	    16.667
  46.560	     16.67	    11.785
  46.580	     16.67	    11.785
  46.600	     41.67	    18.634
  46.620	     25.00	    14.434
  46.640	     25.00	    14.434
  46.660	     33.33	    16.667
  46.680	     58.33	    22.048
  46.700	     41.67	    18.634
  46.720	     25.00	    14.434
  46.740	     50.00	    20.412
  46.760	     33.33	    16.667
  46.780	     16.67	    11.785
  46.800	     58.33	    22.048
  46.820	      0.00	     0.000
  46.840	      8.33	     8.333
  46.860	     25.00	    14.434
  46.880	     50.00	    20.412
  46.900	     41.67	    18.634
  46.920	     75.00	    25.000
  46.940	     33.33	    16.667
  46.960	      8.33	     8.333
  46.980	     41.67	    18.634
  47.000	     33.33	    16.667
  47.020	     66.67	    23.570
  47.040	     16.67	    11.785
  47.060	     33.33	    16.667
  47.080	     16.67	    11.785
  47.100	     50.00	    20.412
  47.120	     33.33	    16.667
  47.140	     33.33	    16.667
  47.160	     16.67	    11.785
  47.180	     50.00	    20.412
  47.200	     41.67	    18.634
  47.220	      8.33	     8.333
  47.240	     16.67	    11.785
  47.260	     33.33	    16.667
  47.280	     50.00	    20.412
  47.300	     50.00	    20.412
  47.320	     25.00	    14.434
  47.340	     41.67	    18.634
  47.360	     50.00	    20.412
  47.380	     33.33	    16.667
  47.400	      8.33	     8.333
  47.420	     33.33	    16.667
  47.440	     50.00	    20.412
  47.460	     16.67	    11.785
  47.480	     66.67	    23.570
  47.500	     25.00	    14.434
  47.520	     33.33	    16.667
  47.540	     50.00	    20.412
  47.560	     41.67	    18.634
  47.580	     25.00	    14.434
  47.600	     50.00	    20.412
  47.620	      8.33	     8.333
  47.640	      8.33	     8.333
  47.660	     16.67	    11.785
  47.680	     16.67	    11.785
  47.700	     58.33	    22.048
  47.720	     41.67	    18.634
  47.740	     25.00	    14.434
  47.760	     75.00	    25.000
  47.780	     25.00	    14.434
  47.800	     33.33	    16.667
  47.820	     41.67	    18.634
  47.840	     16.67	    11.785
  47.860	     16.67	    11.785
  47.880	     33.33	    16.667
  47.900	     33.33	    16.667
  47.920	     16.67	    11.785
  47.940	     41.67	    18.634
  47.960	     41.67	    18.634
  47.980	     41.67	    18.634
  48.000	     50.00	    20.412
  48.020	     16.67	    11.785
  48.040	     66.67	    23.570
  48.060	     41.67	    18.634
  48.080	     41.67	    18.634
  48.100	     66.67	    23.570
  48.120	     66.67	    23.570
  48.140	     25.00	    14.434
  48.160	     25.00	    14.434
  48.180	     33.33	    16.667
  48.200	     58.33	    22.048
  48.220	     41.67	    18.634
  48.240	     33.33	    16.667
  48.260	      8.33	     8.333
  48.280	     33.33	    16.667
  48.300	     50.00	    20.412
  48.320	     25.00	    14.434
  48.340	     25.00	    14.434
  48.360	     16.67	    11.785
  48.380	     33.33	    16.667
  48.400	     50.00	    20.412
  48.420	     50.00	    20.412
  48.440	     16.67	    11.785
  48.460	     33.33	    16.667
  48.480	     41.67	    18.634
  48.500	     33.33	    16.667
  48.520	     50.00	    20.412
  48.540	     58.33	    22.048
  48.560	     41.67	    18.634
  48.580	     16.67	    11.785
  48.600	     25.00	    14.434
  48.620	      8.33	     8.333
  48.640	     25.00	    14.434
  48.660	     25.00	    14.434
  48.680	     41.67	    18.634
  48.700	     41.67	    18.634
  48.720	     25.00	    14.434
  48.740	     25.00	    14.434
  48.760	     75.00	    25.000
  48.780	     33.33	    16.667
  48.800	     16.67	    11.785
  48.820	     16.67	    11.785
  48.840	     41.67	    18.634
  48.860	     25.00	    14.434
  48.880	      8.33	     8.333
  48.900	     50.00	    20.412
  48.920	     25.00	    14.434
  48.940	     33.33	    16.667
  48.960	     50.00	    20.412
  48.980	     66.67	    23.570
  49.000	     25.00	    14.434
  49.020	      8.33	     8.333
  49.040	     25.00	    14.434
  49.060	     58.33	    22.048
  49.080	     25.00	    14.434
  49.100	     75.00	    25.000
  49.120	     25.00	    14.434
  49.140	     25.00	    14.434
  49.160	     41.67	    18.634
  49.180	     25.00	    14.434
  49.200	     41.67	    18.634
  49.220	     25.00	    14.434
  49.240	     41.67	    18.634
  49.260	     25.00	    14.434
  49.280	     25.00	    14.434
  49.300	      8.33	     8.333
  49.320	     16.67	    11.785
  49.340	     41.67	    18.634
  49.360	     16.67	    11.785
  49.380	     41.67	    18.634
  49.400	     33.33	    16.667
  49.420	     66.67	    23.570
  49.440	     50.00	    20.412
  49.460	     25.00	    14.434
  49.480	      0.00	     0.000
  49.500	     33.33	    16.667
  49.520	     50.00	    20.412
  49.540	      8.33	     8.333
  49.560	     50.00	    20.412
  49.580	     33.33	    16.667
  49.600	     33.33	    16.667
  49.620	     41.67	    18.634
  49.640	      0.00	     0.000
  49.660	     25.00	    14.434
  49.680	      8.33	     8.333
  49.700	     50.00	    20.412
  49.720	     41.67	    18.634
  49.740	     16.67	    11.785
  49.760	     50.00	    20.412
  49.780	     91.67	    27.639
  49.800	     25.00	    14.434
  49.820	      8.33	     8.333
  49.840	     33.33	    16.667
  49.860	      0.00	     0.000
  49.880	     41.67	    18.634
  49.900	     25.00	    14.434
  49.920	     41.67	    18.634
  49.940	     41.67	    18.634
  49.960	     33.33	    16.667
  49.980	     33.33	    16.667
  50.000	     25.00	    14.434
  50.020	     33.33	    16.667
  50.040	     41.67	    18.634
  50.060	     33.33	    16.667
  50.080	     25.00	    14.434
  50.100	     41.67	    18.634
  50.120	     50.00	    20.412
  50.140	     41.67	    18.634
  50.160	     50.00	    20.412
  50.180	     16.67	    11.785
  50.200	     25.00	    14.434
  50.220	     33.33	    16.667
  50.240	     41.67	    18.634
  50.260	     41.67	    18.634
  50.280	      8.33	     8.333
  50.300	     50.00	    20.412
  50.320	      8.33	     8.333
  50.340	     25.00	    14.434
  50.360	     16.67	    11.785
  50.380	     25.00	    14.434
  50.400	     58.33	    22.048
  50.420	     58.33	    22.048
  50.440	     16.67	    11.785
  50.460	     41.67	    18.634
  50.480	     25.00	    14.434
  50.500	     16.67	    11.785
  50.520	     33.33	    16.667
  50.540	     33.33	    16.667
  50.560	     41.67	    18.634
  50.580	     16.67	    11.785
  50.600	     33.33	    16.667
  50.620	     25.00	    14.434
  50.640	     66.67	    23.570
  50.660	     25.00	    14.434
  50.680	     50.00	    20.412
  50.700	     25.00	    14.434
  50.720	     33.33	    16.667
  50.740	     41.67	    18.634
  50.760	     33.33	    16.667
  50.780	     50.00	    20.412
  50.800	     25.00	    14.434
  50.820	     25.00	    14.434
  50.840	     33.33	    16.667
  50.860	     33.33	    16.667
  50.880	     66.67	    23.570
  50.900	     16.67	    11.785
  50.920	     16.67	    11.785
  50.940	     33.33	    16.667
  50.960	      0.00	     0.000
  50.980	     16.67	    11.785
  51.000	     16.67	    11.785
  51.020	      0.00	     0.000
  51.040	     33.33	    16.667
  51.060	     33.33	    16.667
  51.080	     25.00	    14.434
  51.100	     41.67	    18.634
  51.120	     50.00	    20.412
  51.140	     41.67	    18.634
  51.160	     33.33	    16.667
  51.180	     25.00	    14.434
  51.200	     50.00	    20.412
  51.220	     75.00	    25.000
  51.240	     33.33	    16.667
  51.260	     41.67	    18.634
  51.280	     91.67	    27.639
  51.300	     58.33	    22.048
  51.320	     25.00	    14.434
  51.340	      8.33	     8.333
  51.360	     25.00	    14.434
  51.380	     16.67	    11.785
  51.400	     50.00	    20.412
  51.420	     25.00	    14.434
  51.440	     33.33	    16.667
  51.460	     33.33	    16.667
  51.480	      8.33	     8.333
  51.500	     25.00	    14.434
  51.520	     58.33	    22.048
  51.540	     41.67	    18.634
  51.560	     41.67	    18.634
  51.580	     50.00	    20.412
  51.600	     41.67	    18.634
  51.620	     41.67	    18.634
  51.640	     25.00	    14.434
  51.660	     33.33	    16.667
  51.680	     16.67	    11.785
  51.700	     66.67	    23.570
  51.720	     50.00	    20.412
  51.740	     33.33	    16.667
  51.760	     25.00	    14.434
  51.780	     33.33	    16.667
  51.800	     50.00	    20.412
  51.820	     25.00	    14.434
  51.840	     33.33	    16.667
  51.860	     41.67	    18.634
  51.880	     58.33	    22.048
  51.900	      0.00	     0.000
  51.920	     58.33	    22.048
  51.940	     25.00	    14.434
  51.960	     25.00	    14.434
  51.980	     33.33	    16.667
  52.000	      8.33	     8.333
  52.020	      8.33	     8.333
  52.040	     41.67	    18.634
  52.060	     16.67	    11.785
  52.080	     50.00	    20.412
  52.100	     41.67	    18.634
  52.120	     41.67	    18.634
  52.140	     50.00	    20.412
  52.160	     33.33	    16.667
  52.180	     25.00	    14.434
  52.200	      8.33	     8.333
  52.220	     50.00	    20.412
  52.240	     33.33	    16.667
  52.260	      8.33	     8.333
  52.280	     25.00	    14.434
  52.300	     25.00	    14.434
  52.320	     25.00	    14.434
  52.340	      8.33	     8.333
  52.360	     25.00	    14.434
  52.380	     66.67	    23.570
  52.400	     25.00	    14.434
  52.420	     16.67	    11.785
  52.440	     58.33	    22.048
  52.460	     25.00	    14.434
  52.480	     33.33	    16.667
  52.500	     16.67	    11.785
  52.520	     41.67	    18.634
  52.540	     16.67	    11.785
  52.560	     58.33	    22.048
  52.580	     25.00	    14.434
  52.600	     58.33	    22.048
  52.620	     16.67	    11.785
  52.640	     25.00	    14.434
  52.660	      8.33	     8.333
  52.680	     16.67	    11.785
  52.700	     33.33	    16.667
  52.720	      8.33	     8.333
  52.740	     41.67	    18.634
  52.760	      8.33	     8.333
  52.780	     50.00	    20.412
  52.800	     16.67	    11.785
  52.820	     25.00	    14.434
  52.840	     16.67	    11.785
  52.860	     50.00	    20.412
  52.880	     16.67	    11.785
  52.900	     33.33	    16.667
  52.920	     33.33	    16.667
  52.940	     66.67	    23.570
  52.960	     50.00	    20.412
  52.980	      8.33	     8.333
  53.000	      0.00	     0.000
  53.020	     33.33	    16.667
  53.040	     41.67	    18.634
  53.060	     16.67	    11.785
  53.080	     25.00	    14.434
  53.100	     25.00	    14.434
  53.120	     33.33	    16.667
  53.140	     41.67	    18.634
  53.160	     41.67	    18.634
  53.180	     25.00	    14.434
  53.200	      8.33	     8.333
  53.220	     50.00	    20.412
  53.240	     25.00	    14.434
  53.260	     25.00	    14.434
  53.280	     66.67	    23.570
  53.300	     50.00	    20.412
  53.320	     16.67	    11.785
  53.340	      8.33	     8.333
  53.360	      8.33	     8.333
  53.380	     33.33	    16.667
  53.400	      8.33	     8.333
  53.420	     58.33	    22.048
  53.440	     16.67	    11.785
  53.460	     25.00	    14.434
  53.480	     41.67	    18.634
  53.500	     25.00	    14.434
  53.520	     41.67	    18.634
  53.540	     25.00	    14.434
  53.560	     33.33	    16.667
  53.580	     41.67	    18.634
  53.600	     25.00	    14.434
  53.620	     33.33	    16.667
  53.640	     41.67	    18.634
  53.660	     58.33	    22.048
  53.680	     50.00	    20.412
  53.700	      8.33	     8.333
  53.720	     33.33	    16.667
  53.740	     33.33	    16.667
  53.760	     16.67	    11.785
  53.780	     16.67	    11.785
  53.800	     66.67	    23.570
  53.820	      8.33	     8.333
  53.840	      0.00	     0.000
  53.860	     50.00	    20.412
  53.880	     25.00	    14.434
  53.900	     25.00	    14.434
  53.920	     25.00	    14.434
  53.940	     50.00	    20.412
  53.960	     58.33	    22.048
  53.980	     41.67	    18.634
  54.000	     58.33	    22.048
  54.020	     25.00	    14.434
  54.040	     33.33	    16.667
  54.060	     41.67	    18.634
  54.080	      8.33	     8.333
  54.100	     25.00	    14.434
  54.120	     75.00	    25.000
  54.140	     16.67	    11.785
  54.160	     41.67	    18.634
  54.180	     25.00	    14.434
  54.200	     33.33	    16.667
  54.220	     33.33	    16.667
  54.240	     16.67	    11.785
  54.260	     41.67	    18.634
  54.280	     33.33	    16.667
  54.300	     25.00	    14.434
  54.320	     33.33	    16.667
  54.340	     41.67	    18.634
  54.360	     25.00	    14.434
  54.380	     50.00	    20.412
  54.400	     33.33	    16.667
  54.420	     25.00	    14.434
  54.440	     41.67	    18.634
  54.460	     16.67	    11.785
  54.480	     16.67	    11.785
  54.500	      0.00	     0.000
  54.520	     25.00	    14.434
  54.540	     41.67	    18.634
  54.560	     66.67	    23.570
  54.580	     16.67	    11.785
  54.600	     16.67	    11.785
  54.620	     66.67	    23.570
  54.640	     33.33	    16.667
  54.660	     58.33	    22.048
  54.680	      8.33	     8.333
  54.700	     33.33	    16.667
  54.720	     41.67	    18.634
  54.740	      8.33	     8.333
  54.760	     25.00	    14.434
  54.780	     41.67	    18.634
  54.800	     41.67	    18.634
  54.820	     25.00	    14.434
  54.840	     16.67	    11.785
  54.860	     25.00	    14.434
  54.880	     33.33	    16.667
  54.900	      8.33	     8.333
  54.920	      8.33	     8.333
  54.940	      8.33	     8.333
  54.960	     25.00	    14.434
  54.980	     16.67	    11.785
  55.000	     25.00	    14.434
  55.020	     41.67	    18.634
  55.040	     33.33	    16.667
  55.060	     25.00	    14.434
  55.080	     25.00	    14.434
  55.100	     33.33	    16.667
  55.120	     41.67	    18.634
  55.140	     16.67	    11.785
  55.160	     66.67	    23.570
  55.180	      0.00	     0.000
  55.200	     50.00	    20.412
  55.220	     33.33	    16.667
  55.240	     50.00	    20.412
  55.260	     16.67	    11.785
  55.280	     25.00	    14.434
  55.300	      8.33	     8.333
  55.320	     25.00	    14.434
  55.340	     25.00	    14.434
  55.360	     41.67	    18.634
  55.380	     41.67	    18.634
  55.400	      8.33	     8.333
  55.420	     25.00	    14.434
  55.440	     33.33	    16.667
  55.460	      8.33	     8.333
  55.480	     33.33	    16.667
  55.500	      8.33	     8.333
  55.520	      8.33	     8.333
  55.540	     16.67	    11.785
  55.560	     25.00	    14.434
  55.580	     25.00	    14.434
  55.600	     33.33	    16.667
  55.620	     58.33	    22.048
  55.640	     25.00	    14.434
  55.660	     50.00	    20.412
  55.680	     16.67	    11.785
  55.700	     16.67	    11.785
  55.720	     25.00	    14.434
  55.740	     25.00	    14.434
  55.760	     16.67	    11.785
  55.780	     25.00	    14.434
  55.800	     25.00	    14.434
  55.820	     25.00	    14.434
  55.840	     33.33	    16.667
  55.860	     25.00	    14.434
  55.880	     16.67	    11.785
  55.900	     25.00	    14.434
  55.920	     33.33	    16.667
  55.940	     33.33	    16.667
  55.960	     50.00	    20.412
  55.980	     16.67	    11.785
  56.000	     58.33	    22.048
  56.020	      0.00	     0.000
  56.040	     16.67	    11.785
  56.060	     25.00	    14.434
  56.080	      8.33	     8.333
  56.100	     58.33	    22.048
  56.120	     25.00	    14.434
  56.140	      8.33	     8.333
  56.160	     58.33	    22.048
  56.180	     33.33	    16.667
  56.200	     75.00	    25.000
  56.220	     41.67	    18.634
  56.240	     33.33	    16.667
  56.260	     25.00	    14.434
  56.280	      8.33	     8.333
  56.300	     50.00	    20.412
  56.320	     50.00	    20.412
  56.340	     33.33	    16.667
  56.360	     41.67	    18.634
  56.380	     33.33	    16.667
  56.400	     66.67	    23.570
  56.420	     25.00	    14.434
  56.440	      8.33	     8.333
  56.460	     25.00	    14.434
  56.480	     58.33	    22.048
  56.500	     33.33	    16.667
  56.520	     16.67	    11.785
  56.540	     33.33	    16.667
  56.560	     25.00	    14.434
  56.580	     41.67	    18.634
  56.600	     16.67	    11.785
  56.620	     66.67	    23.570
  56.640	     25.00	    14.434
  56.660	     41.67	    18.634
  56.680	     16.67	    11.785
  56.700	     41.67	    18.634
  56.720	     16.67	    11.785
  56.740	     16.67	    11.785
  56.760	     50.00	    20.412
  56.780	     33.33	    16.667
  56.800	     16.67	    11.785
  56.820	     25.00	    14.434
  56.840	     25.00	    14.434
  56.860	     33.33	    16.667
  56.880	      8.33	     8.333
  56.900	     41.67	    18.634
  56.920	     41.67	    18.634
  56.940	     25.00	    14.434
  56.960	     25.00	    14.434
  56.980	     58.33	    22.048
  57.000	     16.67	    11.785
  57.020	     33.33	    16.667
  57.040	     25.00	    14.434
  57.060	     41.67	    18.634
  57.080	     33.33	    16.667
  57.100	     33.33	    16.667
  57.120	     33.33	    16.667
  57.140	      8.33	     8.333
  57.160	      8.33	     8.333
  57.180	     41.67	    18.634
  57.200	     25.00	    14.434
  57.220	      8.33	     8.333
  57.240	     33.33	    16.667
  57.260	     41.67	    18.634
  57.280	     25.00	    14.434
  57.300	     25.00	    14.434
  57.320	      0.00	     0.000
  57.340	      8.33	     8.333
  57.360	      0.00	     0.000
  57.380	     16.67	    11.785
  57.400	     41.67	    18.634
  57.420	     16.67	    11.785
  57.440	     41.67	    18.634
  57.460	     25.00	    14.434
  57.480	     33.33	    16.667
  57.500	     50.00	    20.412
  57.520	     16.67	    11.785
  57.540	     25.00	    14.434
  57.560	     58.33	    22.048
  57.580	     16.67	    11.785
  57.600	      0.00	     0.000
  57.620	     50.00	    20.412
  57.640	     41.67	    18.634
  57.660	     16.67	    11.785
  57.680	     41.67	    18.634
  57.700	     50.00	    20.412
  57.720	     50.00	    20.412
  57.740	     16.67	    11.785
  57.760	     50.00	    20.412
  57.780	     41.67	    18.634
  57.800	     25.00	    14.434
  57.820	     25.00	    14.434
  57.840	     58.33	    22.048
  57.860	     16.67	    11.785
  57.880	     50.00	    20.412
  57.900	      8.33	     8.333
  57.920	     75.00	    25.000
  57.940	     25.00	    14.434
  57.960	      8.33	     8.333
  57.980	     16.67	    11.785
  58.000	     50.00	    20.412
  58.020	     33.33	    16.667
  58.040	     50.00	    20.412
  58.060	     16.67	    11.785
  58.080	     50.00	    20.412
  58.100	     58.33	    22.048
  58.120	      0.00	     0.000
  58.140	     16.67	    11.785
  58.160	     33.33	    16.667
  58.180	     33.33	    16.667
  58.200	     25.00	    14.434
  58.220	     33.33	    16.667
  58.240	     58.33	    22.048
  58.260	     25.00	    14.434
  58.280	     66.67	    23.570
  58.300	     58.33	    22.048
  58.320	     41.67	    18.634
  58.340	     66.67	    23.570
  58.360	     66.67	    23.570
  58.380	     58.33	    22.048
  58.400	     58.33	    22.048
  58.420	     75.00	    25.000
  58.440	    125.00	    32.275
  58.460	    125.00	    32.275
  58.480	    166.67	    37.268
  58.500	    308.33	    50.690
  58.520	    333.33	    52.705
  58.540	    741.67	    78.617
  58.560	    758.33	    79.495
  58.580	    891.67	    86.201
  58.600	   1041.67	    93.169
  58.620	   1116.67	    96.465
  58.640	    991.67	    90.906
  58.660	    950.00	    88.976
  58.680	    825.00	    82.916
  58.700	    775.00	    80.364
  58.720	    783.33	    80.795
  58.740	    675.00	    75.000
  58.760	    733.33	    78.174
  58.780	    558.33	    68.211
  58.800	    533.33	    66.667
  58.820	    458.33	    61.802
  58.840	    358.33	    54.645
  58.860	    358.33	    54.645
  58.880	    233.33	    44.096
  58.900	    200.00	    40.825
  58.920	    158.33	    36.324
  58.940	     91.67	    27.639
  58.960	    100.00	    28.868
  58.980	     33.33	    16.667
  59.000	     83.33	    26.352
  59.020	     33.33	    16.667
  59.040	     83.33	    26.352
  59.060	     16.67	    11.785
  59.080	    100.00	    28.868
  59.100	     33.33	    16.667
  59.120	      8.33	     8.333
  59.140	     41.67	    18.634
  59.160	     33.33	    16.667
  59.180	     16.67	    11.785
  59.200	     33.33	    16.667
  59.220	     41.67	    18.634
  59.240	     66.67	    23.570
  59.260	      8.33	     8.333
  59.280	     33.33	    16.667
  59.300	     16.67	    11.785
  59.320	     41.67	    18.634
  59.340	     25.00	    14.434
  59.360	     16.67	    11.785
  59.380	     16.67	    11.785
  59.400	     66.67	    23.570
  59.420	     50.00	    20.412
  59.440	     33.33	    16.667
  59.460	     50.00	    20.412
  59.480	     41.67	    18.634
  59.500	     25.00	    14.434
  59.520	      0.00	     0.000
  59.540	     25.00	    14.434
  59.560	     50.00	    20.412
  59.580	     41.67	    18.634
  59.600	     41.67	    18.634
  59.620	     33.33	    16.667
  59.640	     33.33	    16.667
  59.660	     50.00	    20.412
  59.680	     41.67	    18.634
  59.700	     50.00	    20.412
  59.720	      8.33	     8.333
  59.740	     25.00	    14.434
  59.760	     25.00	    14.434
  59.780	     16.67	    11.785
  59.800	      0.00	     0.000
  59.820	     16.67	    11.785
  59.840	     33.33	    16.667
  59.860	     25.00	    14.434
  59.880	     16.67	    11.785
  59.900	     25.00	    14.434
  59.920	     16.67	    11.785
  59.940	      8.33	     8.333
  59.960	     33.33	    16.667
  59.980	     33.33	    16.667
  60.000	     33.33	    16.667
  60.020	     25.00	    14.434
  60.040	     41.67	    18.634
  60.060	     25.00	    14.434
  60.080	     16.67	    11.785
  60.100	      8.33	     8.333
  60.120	     41.67	    18.634
  60.140	     33.33	    16.667
  60.160	     83.33	    26.352
  60.180	     25.00	    14.434
  60.200	     33.33	    16.667
  60.220	      8.33	     8.333
  60.240	     16.67	    11.785
  60.260	     25.00	    14.434
  60.280	     41.67	    18.634
  60.300	      0.00	     0.000
  60.320	     25.00	    14.434
  60.340	     33.33	    16.667
  60.360	     33.33	    16.667
  60.380	      0.00	     0.000
  60.400	      8.33	     8.333
  60.420	     16.67	    11.785
  60.440	     16.67	    11.785
  60.460	     50.00	    20.412
  60.480	      8.33	     8.333
  60.500	     25.00	    14.434
  60.520	     25.00	    14.434
  60.540	     41.67	    18.634
  60.560	     16.67	    11.785
  60.580	     25.00	    14.434
  60.600	     16.67	    11.785
  60.620	     58.33	    22.048
  60.640	     58.33	    22.048
  60.660	     50.00	    20.412
  60.680	     25.00	    14.434
  60.700	     33.33	    16.667
  60.720	     25.00	    14.434
  60.740	     50.00	    20.412
  60.760	     75.00	    25.000
  60.780	     16.67	    11.785
  60.800	     16.67	    11.785
  60.820	     41.67	    18.634
  60.840	     25.00	    14.434
  60.860	     16.67	    11.785
  60.880	     16.67	    11.785
  60.900	     16.67	    11.785
  60.920	     50.00	    20.412
  60.940	     41.67	    18.634
  60.960	     50.00	    20.412
  60.980	     25.00	    14.434
  61.000	      8.33	     8.333
  61.020	     41.67	    18.634
  61.040	     16.67	    11.785
  61.060	     16.67	    11.785
  61.080	     16.67	    11.785
  61.100	     25.00	    14.434
  61.120	     33.33	    16.667
  61.140	     25.00	    14.434
  61.160	      8.33	     8.333
  61.180	     16.67	    11.785
  61.200	     41.67	    18.634
  61.220	     16.67	    11.785
  61.240	     25.00	    14.434
  61.260	     25.00	    14.434
  61.280	      8.33	     8.333
  61.300	     16.67	    11.785
  61.320	     25.00	    14.434
  61.340	     25.00	    14.434
  61.360	     41.67	    18.634
  61.380	     41.67	    18.634
  61.400	     50.00	    20.412
  61.420	     25.00	    14.434
  61.440	      0.00	     0.000
  61.460	     50.00	    20.412
  61.480	     41.67	    18.634
  61.500	     25.00	    14.434
  61.520	      8.33	     8.333
  61.540	     58.33	    22.048
  61.560	     16.67	    11.785
  61.580	     33.33	    16.667
  61.600	     33.33	    16.667
  61.620	      0.00	     0.000
  61.640	     25.00	    14.434
  61.660	     16.67	    11.785
  61.680	     25.00	    14.434
  61.700	     33.33	    16.667
  61.720	      8.33	     8.333
  61.740	     58.33	    22.048
  61.760	     50.00	    20.412
  61.780	     33.33	    16.667
  61.800	     16.67	    11.785
  61.820	     25.00	    14.434
  61.840	     33.33	    16.667
  61.860	     25.00	    14.434
  61.880	     25.00	    14.434
  61.900	     33.33	    16.667
  61.920	     33.33	    16.667
  61.940	     25.00	    14.434
  61.960	     33.33	    16.667
  61.980	     25.00	    14.434
  62.000	     25.00	    14.434
  62.020	     25.00	    14.434
  62.040	     16.67	    11.785
  62.060	      8.33	     8.333
  62.080	     66.67	    23.570
  62.100	      8.33	     8.333
  62.120	     50.00	    20.412
  62.140	     41.67	    18.634
  62.160	     33.33	    16.667
  62.180	     33.33	    16.667
  62.200	     16.67	    11.785
  62.220	     33.33	    16.667
  62.240	     16.67	    11.785
  62.260	     25.00	    14.434
  62.280	     25.00	    14.434
  62.300	     25.00	    14.434
  62.320	     25.00	    14.434
  62.340	     25.00	    14.434
  62.360	     16.67	    11.785
  62.380	     58.33	    22.048
  62.400	     16.67	    11.785
  62.420	     16.67	    11.785
  62.440	     16.67	    11.785
  62.460	     16.67	    11.785
  62.480	     16.67	    11.785
  62.500	     16.67	    11.785
  62.520	     58.33	    22.048
  62.540	     16.67	    11.785
  62.560	     33.33	    16.667
  62.580	     25.00	    14.434
  62.600	     16.67	    11.785
  62.620	     25.00	    14.434
  62.640	     33.33	    16.667
  62.660	     33.33	    16.667
  62.680	     50.00	    20.412
  62.700	     25.00	    14.434
  62.720	     41.67	    18.634
  62.740	     33.33	    16.667
  62.760	     33.33	    16.667
  62.780	     50.00	    20.412
  62.800	      8.33	     8.333
  62.820	     41.67	    18.634
  62.840	     33.33	    16.667
  62.860	      8.33	     8.333
  62.880	     66.67	    23.570
  62.900	     16.67	    11.785
  62.920	     16.67	    11.785
  62.940	     33.33	    16.667
  62.960	      8.33	     8.333
  62.980	     33.33	    16.667
  63.000	     33.33	    16.667
  63.020	     25.00	    14.434
  63.040	     16.67	    11.785
  63.060	     33.33	    16.667
  63.080	     25.00	    14.434
  63.100	     16.67	    11.785
  63.120	     66.67	    23.570
  63.140	      8.33	     8.333
  63.160	     16.67	    11.785
  63.180	     25.00	    14.434
  63.200	     16.67	    11.785
  63.220	     16.67	    11.785
  63.240	     41.67	    18.634
  63.260	     16.67	    11.785
  63.280	     16.67	    11.785
  63.300	     41.67	    18.634
  63.320	     41.67	    18.634
  63.340	     16.67	    11.785
  63.360	     16.67	    11.785
  63.380	     25.00	    14.434
  63.400	      8.33	     8.333
  63.420	     41.67	    18.634
  63.440	     16.67	    11.785
  63.460	      8.33	     8.333
  63.480	      8.33	     8.333
  63.500	     41.67	    18.634
  63.520	     41.67	    18.634
  63.540	     16.67	    11.785
  63.560	     50.00	    20.412
  63.580	     16.67	    11.785
  63.600	     16.67	    11.785
  63.620	      0.00	     0.000
  63.640	      8.33	     8.333
  63.660	     16.67	    11.785
  63.680	     25.00	    14.434
  63.700	     16.67	    11.785
  63.720	     33.33	    16.667
  63.740	      8.33	     8.333
  63.760	     50.00	    20.412
  63.780	     25.00	    14.434
  63.800	     16.67	    11.785
  63.820	     16.67	    11.785
  63.840	      0.00	     0.000
  63.860	     75.00	    25.000
  63.880	     25.00	    14.434
  63.900	     25.00	    14.434
  63.920	      8.33	     8.333
  63.940	     58.33	    22.048
  63.960	      8.33	     8.333
  63.980	     25.00	    14.434
  64.000	     25.00	    14.434
  64.020	     25.00	    14.434
  64.040	     25.00	    14.434
  64.060	      8.33	     8.333
  64.080	      8.33	     8.333
  64.100	     58.33	    22.048
  64.120	     50.00	    20.412
  64.140	     16.67	    11.785
  64.160	     50.00	    20.412
  64.180	     33.33	    16.667
  64.200	     33.33	    16.667
  64.220	     16.67	    11.785
  64.240	     25.00	    14.434
  64.260	      8.33	     8.333
  64.280	      8.33	     8.333
  64.300	     50.00	    20.412
  64.320	     25.00	    14.434
  64.340	      8.33	     8.333
  64.360	     33.33	    16.667
  64.380	     50.00	    20.412
  64.400	     25.00	    14.434
  64.420	      8.33	     8.333
  64.440	     33.33	    16.667
  64.460	     75.00	    25.000
  64.480	     50.00	    20.412
  64.500	     25.00	    14.434
  64.520	     41.67	    18.634
  64.540	     16.67	    11.785
  64.560	     41.67	    18.634
  64.580	     50.00	    20.412
  64.600	     33.33	    16.667
  64.620	      8.33	     8.333
  64.640	     33.33	    16.667
  64.660	     66.67	    23.570
  64.680	     16.67	    11.785
  64.700	     41.67	    18.634
  64.720	      8.33	     8.333
  64.740	     16.67	    11.785
  64.760	     16.67	    11.785
  64.780	     33.33	    16.667
  64.800	     33.33	    16.667
  64.820	     58.33	    22.048
  64.840	     25.00	    14.434
  64.860	     16.67	    11.785
  64.880	     41.67	    18.634
  64.900	     41.67	    18.634
  64.920	     33.33	    16.667
  64.940	      8.33	     8.333
  64.960	     16.67	    11.785
  64.980	      0.00	     0.000
  65.000	     25.00	    14.434
  65.020	     41.67	    18.634
  65.040	     33.33	    16.667
  65.060	     25.00	    14.434
  65.080	     33.33	    16.667
  65.100	     33.33	    16.667
  65.120	     16.67	    11.785
  65.140	     41.67	    18.634
  65.160	      8.33	     8.333
  65.180	      0.00	     0.000
  65.200	     33.33	    16.667
  65.220	     41.67	    18.634
  65.240	     33.33	    16.667
  65.260	     41.67	    18.634
  65.280	      8.33	     8.333
  65.300	     41.67	    18.634
  65.320	     16.67	    11.785
  65.340	     25.00	    14.434
  65.360	     41.67	    18.634
  65.380	     25.00	    14.434
  65.400	     83.33	    26.352
  65.420	     25.00	    14.434
  65.440	     50.00	    20.412
  65.460	     50.00	    20.412
  65.480	     25.00	    14.434
  65.500	     66.67	    23.570
  65.520	     58.33	    22.048
  65.540	     50.00	    20.412
  65.560	     25.00	    14.434
  65.580	     75.00	    25.000
  65.600	     75.00	    25.000
  65.620	     33.33	    16.667
  65.640	    100.00	    28.868
  65.660	     83.33	    26.352
  65.680	     83.33	    26.352
  65.700	     25.00	    14.434
  65.720	     58.33	    22.048
  65.740	     41.67	    18.634
  65.760	     25.00	    14.434
  65.780	     58.33	    22.048
  65.800	     58.33	    22.048
  65.820	     25.00	    14.434
  65.840	     16.67	    11.785
  65.860	     16.67	    11.785
  65.880	     33.33	    16.667
  65.900	     16.67	    11.785
  65.920	     25.00	    14.434
  65.940	     16.67	    11.785
  65.960	      0.00	     0.000
  65.980	     50.00	    20.412
  66.000	     33.33	    16.667
  66.020	      8.33	     8.333
  66.040	      8.33	     8.333
  66.060	     33.33	    16.667
  66.080	     41.67	    18.634
  66.100	     25.00	    14.434
  66.120	      8.33	     8.333
  66.140	     33.33	    16.667
  66.160	     33.33	    16.667
  66.180	     41.67	    18.634
  66.200	     66.67	    23.570
  66.220	     16.67	    11.785
  66.240	     16.67	    11.785
  66.260	      8.33	     8.333
  66.280	     50.00	    20.412
  66.300	     16.67	    11.785
  66.320	      8.33	     8.333
  66.340	     25.00	    14.434
  66.360	     50.00	    20.412
  66.380	     50.00	    20.412
  66.400	     33.33	    16.667
  66.420	     50.00	    20.412
  66.440	     33.33	    16.667
  66.460	     33.33	    16.667
  66.480	     41.67	    18.634
  66.500	     41.67	    18.634
  66.520	     33.33	    16.667
  66.540	     41.67	    18.634
  66.560	     25.00	    14.434
  66.580	     16.67	    11.785
  66.600	     16.67	    11.785
  66.620	     41.67	    18.634
  66.640	     16.67	    11.785
  66.660	     16.67	    11.785
  66.680	     16.67	    11.785
  66.700	      8.33	     8.333
  66.720	     33.33	    16.667
  66.740	     33.33	    16.667
  66.760	     33.33	    16.667
  66.780	     16.67	    11.785
  66.800	     16.67	    11.785
  66.820	     41.67	    18.634
  66.840	      8.33	     8.333
  66.860	     58.33	    22.048
  66.880	     25.00	    14.434
  66.900	     25.00	    14.434
  66.920	     66.67	    23.570
  66.940	     16.67	    11.785
  66.960	     41.67	    18.634
  66.980	     50.00	    20.412
  67.000	     25.00	    14.434
  67.020	     41.67	    18.634
  67.040	     25.00	    14.434
  67.060	     33.33	    16.667
  67.080	      8.33	     8.333
  67.100	     33.33	    16.667
  67.120	     16.67	    11.785
  67.140	     41.67	    18.634
  67.160	     41.67	    18.634
  67.180	     50.00	    20.412
  67.200	     33.33	    16.667
  67.220	     33.33	    16.667
  67.240	     41.67	    18.634
  67.260	     50.00	    20.412
  67.280	     41.67	    18.634
  67.300	     25.00	    14.434
  67.320	     25.00	    14.434
  67.340	     58.33	    22.048
  67.360	     50.00	    20.412
  67.380	     33.33	    16.667
  67.400	     25.00	    14.434
  67.420	     16.67	    11.785
  67.440	      8.33	     8.333
  67.460	     50.00	    20.412
  67.480	     83.33	    26.352
  67.500	     25.00	    14.434
  67.520	     33.33	    16.667
  67.540	     41.67	    18.634
  67.560	      8.33	     8.333
  67.580	     25.00	    14.434
  67.600	     33.33	    16.667
  67.620	     33.33	    16.667
  67.640	     25.00	    14.434
  67.660	     25.00	    14.434
  67.680	      8.33	     8.333
  67.700	     16.67	    11.785
  67.720	     16.67	    11.785
  67.740	     16.67	    11.785
  67.760	     25.00	    14.434
  67.780	      8.33	     8.333
  67.800	      8.33	     8.333
  67.820	     50.00	    20.412
  67.840	     58.33	    22.048
  67.860	     25.00	    14.434
  67.880	     66.67	    23.570
  67.900	     41.67	    18.634
  67.920	     50.00	    20.412
  67.940	     33.33	    16.667
  67.960	     33.33	    16.667
  67.980	     33.33	    16.667
  68.000	     41.67	    18.634
  68.020	     50.00	    20.412
  68.040	      8.33	     8.333
  68.060	     25.00	    14.434
  68.080	      8.33	     8.333
  68.100	     50.00	    20.412
  68.120	     25.00	    14.434
  68.140	     25.00	    14.434
  68.160	     41.67	    18.634
  68.180	     16.67	    11.785
  68.200	      8.33	     8.333
  68.220	     25.00	    14.434
  68.240	     66.67	    23.570
  68.260	      8.33	     8.333
  68.280	     41.67	    18.634
  68.300	     50.00	    20.412
  68.320	      0.00	     0.000
  68.340	     41.67	    18.634
  68.360	     16.67	    11.785
  68.380	     25.00	    14.434
  68.400	      8.33	     8.333
  68.420	      0.00	     0.000
  68.440	      8.33	     8.333
  68.460	     41.67	    18.634
  68.480	     41.67	    18.634
  68.500	     50.00	    20.412
  68.520	     33.33	    16.667
  68.540	      0.00	     0.000
  68.560	     16.67	    11.785
  68.580	     50.00	    20.412
  68.600	     41.67	    18.634
  68.620	     33.33	    16.667
  68.640	     33.33	    16.667
  68.660	     33.33	    16.667
  68.680	     41.67	    18.634
  68.700	     41.67	    18.634
  68.720	      0.00	     0.000
  68.740	     16.67	    11.785
  68.760	     33.33	    16.667
  68.780	     16.67	    11.785
  68.800	     16.67	    11.785
  68.820	     25.00	    14.434
  68.840	     41.67	    18.634
  68.860	     16.67	    11.785
  68.880	     50.00	    20.412
  68.900	     25.00	    14.434
  68.920	      8.33	     8.333
  68.940	      8.33	     8.333
  68.960	     33.33	    16.667
  68.980	     16.67	    11.785
  69.000	     16.67	    11.785
  69.020	     16.67	    11.785
  69.040	     25.00	    14.434
  69.060	     16.67	    11.785
  69.080	     16.67	    11.785
  69.100	      0.00	     0.000
  69.120	     25.00	    14.434
  69.140	     25.00	    14.434
  69.160	     33.33	    16.667
  69.180	     41.67	    18.634
  69.200	     25.00	    14.434
  69.220	     33.33	    16.667
  69.240	     58.33	    22.048
  69.260	     33.33	    16.667
  69.280	     58.33	    22.048
  69.300	      8.33	     8.333
  69.320	     25.00	    14.434
  69.340	     25.00	    14.434
  69.360	     25.00	    14.434
  69.380	     16.67	    11.785
  69.400	     25.00	    14.434
  69.420	     25.00	    14.434
  69.440	     16.67	    11.785
  69.460	      0.00	     0.000
  69.480	     25.00	    14.434
  69.500	     16.67	    11.785
  69.520	     41.67	    18.634
  69.540	     33.33	    16.667
  69.560	     25.00	    14.434
  69.580	     33.33	    16.667
  69.600	     25.00	    14.434
  69.620	      0.00	     0.000
  69.640	     33.33	    16.667
  69.660	     33.33	    16.667
  69.680	      0.00	     0.000
  69.700	     16.67	    11.785
  69.720	     16.67	    11.785
  69.740	     25.00	    14.434
  69.760	     16.67	    11.785
  69.780	     58.33	    22.048
  69.800	     33.33	    16.667
  69.820	     25.00	    14.434
  69.840	     33.33	    16.667
  69.860	     25.00	    14.434
  69.880	     25.00	    14.434
  69.900	     16.67	    11.785
  69.920	     41.67	    18.634
  69.940	     16.67	    11.785
  69.960	      8.33	     8.333
  69.980	     33.33	    16.667
  70.000	     41.67	    18.634
  70.020	     25.00	    14.434
  70.040	     33.33	    16.667
  70.060	      0.00	     0.000
  70.080	     25.00	    14.434
  70.100	      0.00	     0.000
  70.120	     33.33	    16.667
  70.140	     75.00	    25.000
  70.160	     33.33	    16.667
  70.180	      8.33	     8.333
  70.200	     41.67	    18.634
  70.220	     16.67	    11.785
  70.240	     16.67	    11.785
  70.260	     33.33	    16.667
  70.280	     16.67	    11.785
  70.300	     25.00	    14.434
  70.320	     33.33	    16.667
  70.340	     16.67	    11.785
  70.360	     16.67	    11.785
  70.380	      0.00	     0.000
  70.400	     50.00	    20.412
  70.420	     25.00	    14.434
  70.440	     25.00	    14.434
  70.460	     33.33	    16.667
  70.480	     41.67	    18.634
  70.500	     50.00	    20.412
  70.520	     33.33	    16.667
  70.540	     33.33	    16.667
  70.560	     16.67	    11.785
  70.580	      8.33	     8.333
  70.600	     33.33	    16.667
  70.620	     41.67	    18.634
  70.640	     16.67	    11.785
  70.660	      8.33	     8.333
  70.680	     33.33	    16.667
  70.700	     33.33	    16.667
  70.720	     33.33	    16.667
  70.740	     33.33	    16.667
  70.760	      8.33	     8.333
  70.780	     16.67	    11.785
  70.800	     41.67	    18.634
  70.820	     16.67	    11.785
  70.840	     33.33	    16.667
  70.860	     25.00	    14.434
  70.880	     16.67	    11.785
  70.900	     25.00	    14.434
  70.920	     25.00	    14.434
  70.940	     33.33	    16.667
  70.960	     75.00	    25.000
  70.980	     25.00	    14.434
  71.000	     25.00	    14.434
  71.020	     41.67	    18.634
  71.040	     41.67	    18.634
  71.060	     25.00	    14.434
  71.080	     25.00	    14.434
  71.100	     25.00	    14.434
  71.120	     41.67	    18.634
  71.140	     16.67	    11.785
  71.160	     25.00	    14.434
  71.180	     33.33	    16.667
  71.200	     41.67	    18.634
  71.220	      8.33	     8.333
  71.240	     33.33	    16.667
  71.260	     25.00	    14.434
  71.280	     25.00	    14.434
  71.300	     33.33	    16.667
  71.320	     25.00	    14.434
  71.340	     25.00	    14.434
  71.360	     41.67	    18.634
  71.380	     33.33	    16.667
  71.400	     25.00	    14.434
  71.420	      8.33	     8.333
  71.440	     33.33	    16.667
  71.460	     25.00	    14.434
  71.480	      8.33	     8.333
  71.500	     41.67	    18.634
  71.520	     25.00	    14.434
  71.540	     25.00	    14.434
  71.560	     41.67	    18.634
  71.580	     25.00	    14.434
  71.600	     33.33	    16.667
  71.620	     41.67	    18.634
  71.640	     75.00	    25.000
  71.660	     25.00	    14.434
  71.680	     25.00	    14.434
  71.700	     16.67	    11.785
  71.720	     25.00	    14.434
  71.740	     25.00	    14.434
  71.760	     25.00	    14.434
  71.780	     33.33	    16.667
  71.800	     33.33	    16.667
  71.820	     25.00	    14.434
  71.840	     16.67	    11.785
  71.860	     83.33	    26.352
  71.880	     25.00	    14.434
  71.900	     50.00	    20.412
  71.920	     33.33	    16.667
  71.940	     50.00	    20.412
  71.960	     16.67	    11.785
  71.980	      8.33	     8.333
  72.000	     16.67	    11.785
  72.020	      8.33	     8.333
  72.040	     83.33	    26.352
  72.060	     50.00	    20.412
  72.080	     50.00	    20.412
  72.100	     41.67	    18.634
  72.120	     33.33	    16.667
  72.140	     41.67	    18.634
  72.160	     25.00	    14.434
  72.180	     25.00	    14.434
  72.200	     16.67	    11.785
  72.220	      8.33	     8.333
  72.240	     16.67	    11.785
  72.260	     25.00	    14.434
  72.280	     41.67	    18.634
  72.300	     33.33	    16.667
  72.320	     25.00	    14.434
  72.340	     25.00	    14.434
  72.360	     41.67	    18.634
  72.380	     25.00	    14.434
  72.400	     25.00	    14.434
  72.420	     58.33	    22.048
  72.440	     50.00	    20.412
  72.460	     50.00	    20.412
  72.480	     16.67	    11.785
  72.500	     33.33	    16.667
  72.520	      8.33	     8.333
  72.540	     16.67	    11.785
  72.560	      0.00	     0.000
  72.580	     16.67	    11.785
  72.600	     16.67	    11.785
  72.620	     25.00	    14.434
  72.640	     66.67	    23.570
  72.660	     41.67	    18.634
  72.680	     50.00	    20.412
  72.700	     33.33	    16.667
  72.720	     33.33	    16.667
  72.740	     41.67	    18.634
  72.760	     25.00	    14.434
  72.780	     25.00	    14.434
  72.800	     41.67	    18.634
  72.820	     66.67	    23.570
  72.840	     33.33	    16.667
  72.860	     33.33	    16.667
  72.880	     33.33	    16.667
  72.900	     33.33	    16.667
  72.920	     58.33	    22.048
  72.940	     33.33	    16.667
  72.960	     41.67	    18.634
  72.980	     33.33	    16.667
  73.000	     33.33	    16.667
  73.020	     16.67	    11.785
  73.040	     83.33	    26.352
  73.060	     25.00	    14.434
  73.080	     50.00	    20.412
  73.100	      0.00	     0.000
  73.120	     58.33	    22.048
  73.140	     25.00	    14.434
  73.160	     58.33	    22.048
  73.180	     41.67	    18.634
  73.200	     33.33	    16.667
  73.220	     25.00	    14.434
  73.240	     41.67	    18.634
  73.260	    100.00	    28.868
  73.280	     16.67	    11.785
  73.300	     58.33	    22.048
  73.320	     83.33	    26.352
  73.340	     58.33	    22.048
  73.360	     83.33	    26.352
  73.380	     83.33	    26.352
  73.400	     91.67	    27.639
  73.420	     50.00	    20.412
  73.440	     50.00	    20.412
  73.460	    100.00	    28.868
  73.480	    100.00	    28.868
  73.500	    175.00	    38.188
  73.520	    325.00	    52.042
  73.540	    375.00	    55.902
  73.560	    425.00	    59.512
  73.580	    800.00	    81.650
  73.600	   1100.00	    95.743
  73.620	   1575.00	   114.564
  73.640	   1866.67	   124.722
  73.660	   1891.67	   125.554
  73.680	   2333.33	   139.443
  73.700	   1866.67	   124.722
  73.720	   2066.67	   131.233
  73.740	   1833.33	   123.603
  73.760	   1533.33	   113.039
  73.780	   1058.33	    93.912
  73.800	    950.00	    88.976
  73.820	    950.00	    88.976
  73.840	    950.00	    88.976
  73.860	    900.00	    86.603
  73.880	   1191.67	    99.652
  73.900	   1208.33	   100.347
  73.920	   1050.00	    93.541
  73.940	    950.00	    88.976
  73.960	    850.00	    84.163
  73.980	    558.33	    68.211
  74.000	    416.67	    58.926
  74.020	    241.67	    44.876
  74.040	    241.67	    44.876
  74.060	     50.00	    20.412
  74.080	    158.33	    36.324
  74.100	     66.67	    23.570
  74.120	     75.00	    25.000
  74.140	     83.33	    26.352
  74.160	     66.67	    23.570
  74.180	     91.67	    27.639
  74.200	     75.00	    25.000
  74.220	     66.67	    23.570
  74.240	     50.00	    20.412
  74.260	     50.00	    20.412
  74.280	     50.00	    20.412
  74.300	     41.67	    18.634
  74.320	     41.67	    18.634
  74.340	     58.33	    22.048
  74.360	     33.33	    16.667
  74.380	     50.00	    20.412
  74.400	     50.00	    20.412
  74.420	     33.33	    16.667
  74.440	      8.33	     8.333
  74.460	     75.00	    25.000
  74.480	      8.33	     8.333
  74.500	     50.00	    20.412
  74.520	     16.67	    11.785
  74.540	     41.67	    18.634
  74.560	     25.00	    14.434
  74.580	     33.33	    16.667
  74.600	     50.00	    20.412
  74.620	     16.67	    11.785
  74.640	     33.33	    16.667
  74.660	     25.00	    14.434
  74.680	     16.67	    11.785
  74.700	     66.67	    23.570
  74.720	     16.67	    11.785
  74.740	     33.33	    16.667
  74.760	     16.67	    11.785
  74.780	     25.00	    14.434
  74.800	     16.67	    11.785
  74.820	     16.67	    11.785
  74.840	     41.67	    18.634
  74.860	     41.67	    18.634
  74.880	     16.67	    11.785
  74.900	      8.33	     8.333
  74.920	     50.00	    20.412
  74.940	     25.00	    14.434
  74.960	     33.33	    16.667
  74.980	     16.67	    11.785
  75.000	     41.67	    18.634
  75.020	     25.00	    14.434
  75.040	     41.67	    18.634
  75.060	     16.67	    11.785
  75.080	     41.67	    18.634
  75.100	      0.00	     0.000
  75.120	     58.33	    22.048
  75.140	     16.67	    11.785
  75.160	     16.67	    11.785
  75.180	     16.67	    11.785
  75.200	      8.33	     8.333
  75.220	     41.67	    18.634
  75.240	     33.33	    16.667
  75.260	     25.00	    14.434
  75.280	     16.67	    11.785
  75.300	     25.00	    14.434
  75.320	     25.00	    14.434
  75.340	     58.33	    22.048
  75.360	      0.00	     0.000
  75.380	     50.00	    20.412
  75.400	     33.33	    16.667
  75.420	     33.33	    16.667
  75.440	     16.67	    11.785
  75.460	     25.00	    14.434
  75.480	      0.00	     0.000
  75.500	     66.67	    23.570
  75.520	     50.00	    20.412
  75.540	     25.00	    14.434
  75.560	     41.67	    18.634
  75.580	      8.33	     8.333
  75.600	     16.67	    11.785
  75.620	     25.00	    14.434
  75.640	      8.33	     8.333
  75.660	     33.33	    16.667
  75.680	     25.00	    14.434
  75.700	     25.00	    14.434
  75.720	     33.33	    16.667
  75.740	     25.00	    14.434
  75.760	      0.00	     0.000
  75.780	     75.00	    25.000
  75.800	      8.33	     8.333
  75.820	     16.67	    11.785
  75.840	     33.33	    16.667
  75.860	     16.67	    11.785
  75.880	     33.33	    16.667
  75.900	     16.67	    11.785
  75.920	     41.67	    18.634
  75.940	     25.00	    14.434
  75.960	     41.67	    18.634
  75.980	     41.67	    18.634
  76.000	     41.67	    18.634
  76.020	      8.33	     8.333
  76.040	     41.67	    18.634
  76.060	     33.33	    16.667
  76.080	      8.33	     8.333
  76.100	     58.33	    22.048
  76.120	     41.67	    18.634
  76.140	     16.67	    11.785
  76.160	      8.33	     8.333
  76.180	     25.00	    14.434
  76.200	     41.67	    18.634
  76.220	     33.33	    16.667
  76.240	      8.33	     8.333
  76.260	     25.00	    14.434
  76.280	     41.67	    18.634
  76.300	     41.67	    18.634
  76.320	     41.67	    18.634
  76.340	     58.33	    22.048
  76.360	     33.33	    16.667
  76.380	     33.33	    16.667
  76.400	     25.00	    14.434
  76.420	     25.00	    14.434
  76.440	     25.00	    14.434
  76.460	     58.33	    22.048
  76.480	     25.00	    14.434
  76.500	     66.67	    23.570
  76.520	     16.67	    11.785
  76.540	      8.33	     8.333
  76.560	      8.33	     8.333
  76.580	     25.00	    14.434
  76.600	     33.33	    16.667
  76.620	     25.00	    14.434
  76.640	     16.67	    11.785
  76.660	     16.67	    11.785
  76.680	     33.33	    16.667
  76.700	     41.67	    18.634
  76.720	     33.33	    16.667
  76.740	     25.00	    14.434
  76.760	      8.33	     8.333
  76.780	     25.00	    14.434
  76.800	      8.33	     8.333
  76.820	     33.33	    16.667
  76.840	     33.33	    16.667
  76.860	     58.33	    22.048
  76.880	     33.33	    16.667
  76.900	     25.00	    14.434
  76.920	     25.00	    14.434
  76.940	     25.00	    14.434
  76.960	     41.67	    18.634
  76.980	     50.00	    20.412
  77.000	     33.33	    16.667
  77.020	     33.33	    16.667
  77.040	      8.33	     8.333
  77.060	     33.33	    16.667
  77.080	     25.00	    14.434
  77.100	     41.67	    18.634
  77.120	     41.67	    18.634
  77.140	      8.33	     8.333
  77.160	      8.33	     8.333
  77.180	     16.67	    11.785
  77.200	     16.67	    11.785
  77.220	     33.33	    16.667
  77.240	     41.67	    18.634
  77.260	     33.33	    16.667
  77.280	     66.67	    23.570
  77.300	     50.00	    20.412
  77.320	     16.67	    11.785
  77.340	     16.67	    11.785
  77.360	     33.33	    16.667
  77.380	     91.67	    27.639
  77.400	     41.67	    18.634
  77.420	     33.33	    16.667
  77.440	     50.00	    20.412
  77.460	     33.33	    16.667
  77.480	     91.67	    27.639
  77.500	     33.33	    16.667
  77.520	     33.33	    16.667
  77.540	     16.67	    11.785
  77.560	      8.33	     8.333
  77.580	     50.00	    20.412
  77.600	     25.00	    14.434
  77.620	     16.67	    11.785
  77.640	     16.67	    11.785
  77.660	     33.33	    16.667
  77.680	     16.67	    11.785
  77.700	     50.00	    20.412
  77.720	     33.33	    16.667
  77.740	     25.00	    14.434
  77.760	     41.67	    18.634
  77.780	     33.33	    16.667
  77.800	     33.33	    16.667
  77.820	     41.67	    18.634
  77.840	     33.33	    16.667
  77.860	      8.33	     8.333
  77.880	     33.33	    16.667
  77.900	     41.67	    18.634
  77.920	     41.67	    18.634
  77.940	     16.67	    11.785
  77.960	     25.00	    14.434
  77.980	     58.33	    22.048
  78.000	      8.33	     8.333
  78.020	     16.67	    11.785
  78.040	     66.67	    23.570
  78.060	     16.67	    11.785
  78.080	     41.67	    18.634
  78.100	     33.33	    16.667
  78.120	     33.33	    16.667
  78.140	     33.33	    16.667
  78.160	     33.33	    16.667
  78.180	     33.33	    16.667
  78.200	      8.33	     8.333
  78.220	      8.33	     8.333
  78.240	     16.67	    11.785
  78.260	     25.00	    14.434
  78.280	     33.33	    16.667
  78.300	      8.33	     8.333
  78.320	     50.00	    20.412
  78.340	     25.00	    14.434
  78.360	      8.33	     8.333
  78.380	     33.33	    16.667
  78.400	     16.67	    11.785
  78.420	     41.67	    18.634
  78.440	      0.00	     0.000
  78.460	     75.00	    25.000
  78.480	      8.33	     8.333
  78.500	     33.33	    16.667
  78.520	     16.67	    11.785
  78.540	     16.67	    11.785
  78.560	     16.67	    11.785
  78.580	     16.67	    11.785
  78.600	     41.67	    18.634
  78.620	     16.67	    11.785
  78.640	     25.00	    14.434
  78.660	     25.00	    14.434
  78.680	      8.33	     8.333
  78.700	      8.33	     8.333
  78.720	     33.33	    16.667
  78.740	      8.33	     8.333
  78.760	     16.67	    11.785
  78.780	     25.00	    14.434
  78.800	     58.33	    22.048
  78.820	     16.67	    11.785
  78.840	     58.33	    22.048
  78.860	      8.33	     8.333
  78.880	     58.33	    22.048
  78.900	     41.67	    18.634
  78.920	      8.33	     8.333
  78.940	     25.00	    14.434
  78.960	     16.67	    11.785
  78.980	     16.67	    11.785
  79.000	     25.00	    14.434
  79.020	     25.00	    14.434
  79.040	     50.00	    20.412
  79.060	     25.00	    14.434
  79.080	     25.00	    14.434
  79.100	     25.00	    14.434
  79.120	     33.33	    16.667
  79.140	     41.67	    18.634
  79.160	     50.00	    20.412
  79.180	     25.00	    14.434
  79.200	     66.67	    23.570
  79.220	     16.67	    11.785
  79.240	     25.00	    14.434
  79.260	     16.67	    11.785
  79.280	     41.67	    18.634
  79.300	     33.33	    16.667
  79.320	     16.67	    11.785
  79.340	     41.67	    18.634
  79.360	     16.67	    11.785
  79.380	     41.67	    18.634
  79.400	      8.33	     8.333
  79.420	     25.00	    14.434
  79.440	     33.33	    16.667
  79.460	     41.67	    18.634
  79.480	     16.67	    11.785
  79.500	     41.67	    18.634
  79.520	     25.00	    14.434
  79.540	     50.00	    20.412
  79.560	     16.67	    11.785
  79.580	     66.67	    23.570
  79.600	      0.00	     0.000
  79.620	     16.67	    11.785
  79.640	      8.33	     8.333
  79.660	     16.67	    11.785
  79.680	     41.67	    18.634
  79.700	     41.67	    18.634
  79.720	     33.33	    16.667
  79.740	     25.00	    14.434
  79.760	     41.67	    18.634
  79.780	     33.33	    16.667
  79.800	     50.00	    20.412
  79.820	     33.33	    16.667
  79.840	     33.33	    16.667
  79.860	     58.33	    22.048
  79.880	     25.00	    14.434
  79.900	     50.00	    20.412
  79.920	     33.33	    16.667
  79.940	     25.00	    14.434
  79.960	      8.33	     8.333
  79.980	     33.33	    16.667
  80.000	     16.67	    11.785
  80.020	     25.00	    14.434
  80.040	     16.67	    11.785
  80.060	     16.67	    11.785
  80.080	     41.67	    18.634
  80.100	     16.67	    11.785
  80.120	     41.67	    18.634
  80.140	     41.67	    18.634
  80.160	     16.67	    11.785
  80.180	     41.67	    18.634
  80.200	     16.67	    11.785
  80.220	     25.00	    14.434
  80.240	     41.67	    18.634
  80.260	      8.33	     8.333
  80.280	     50.00	    20.412
  80.300	     33.33	    16.667
  80.320	     58.33	    22.048
  80.340	     33.33	    16.667
  80.360	      8.33	     8.333
  80.380	     58.33	    22.048
  80.400	      0.00	     0.000
  80.420	     41.67	    18.634
  80.440	     25.00	    14.434
  80.460	     25.00	    14.434
  80.480	     33.33	    16.667
  80.500	     25.00	    14.434
  80.520	     50.00	    20.412
  80.540	     25.00	    14.434
  80.560	      8.33	     8.333
  80.580	     33.33	    16.667
  80.600	     16.67	    11.785
  80.620	      8.33	     8.333
  80.640	     25.00	    14.434
  80.660	     25.00	    14.434
  80.680	     25.00	    14.434
  80.700	     16.67	    11.785
  80.720	     41.67	    18.634
  80.740	     25.00	    14.434
  80.760	     41.67	    18.634
  80.780	     33.33	    16.667
  80.800	     16.67	    11.785
  80.820	     33.33	    16.667
  80.840	     25.00	    14.434
  80.860	     16.67	    11.785
  80.880	     25.00	    14.434
  80.900	     58.33	    22.048
  80.920	     33.33	    16.667
  80.940	     50.00	    20.412
  80.960	     16.67	    11.785
  80.980	     16.67	    11.785
  81.000	     16.67	    11.785
  81.020	     25.00	    14.434
  81.040	     25.00	    14.434
  81.060	      8.33	     8.333
  81.080	     41.67	    18.634
  81.100	     33.33	    16.667
  81.120	     25.00	    14.434
  81.140	     16.67	    11.785
  81.160	     16.67	    11.785
  81.180	      8.33	     8.333
  81.200	     50.00	    20.412
  81.220	     41.67	    18.634
  81.240	     25.00	    14.434
  81.260	     41.67	    18.634
  81.280	     33.33	    16.667
  81.300	     25.00	    14.434
  81.320	     25.00	    14.434
  81.340	     66.67	    23.570
  81.360	     16.67	    11.785
  81.380	     41.67	    18.634
  81.400	     25.00	    14.434
  81.420	     91.67	    27.639
  81.440	      0.00	     0.000
  81.460	      0.00	     0.000
  81.480	     50.00	    20.412
  81.500	      8.33	     8.333
  81.520	     25.00	    14.434
  81.540	     41.67	    18.634
  81.560	     25.00	    14.434
  81.580	     16.67	    11.785
  81.600	     33.33	    16.667
  81.620	     41.67	    18.634
  81.640	      8.33	     8.333
  81.660	     16.67	    11.785
  81.680	     58.33	    22.048
  81.700	     58.33	    22.048
  81.720	     33.33	    16.667
  81.740	      8.33	     8.333
  81.760	      8.33	     8.333
  81.780	     16.67	    11.785
  81.800	      0.00	     0.000
  81.820	     25.00	    14.434
  81.840	     25.00	    14.434
  81.860	     16.67	    11.785
  81.880	     16.67	    11.785
  81.900	     16.67	    11.785
  81.920	     50.00	    20.412
  81.940	     16.67	    11.785
  81.960	     25.00	    14.434
  81.980	     25.00	    14.434
  82.000	     50.00	    20.412
  82.020	      0.00	     0.000
  82.040	     41.67	    18.634
  82.060	     33.33	    16.667
  82.080	     16.67	    11.785
  82.100	     33.33	    16.667
  82.120	     41.67	    18.634
  82.140	     16.67	    11.785
  82.160	     25.00	    14.434
  82.180	     16.67	    11.785
  82.200	     33.33	    16.667
  82.220	     33.33	    16.667
  82.240	     25.00	    14.434
  82.260	     58.33	    22.048
  82.280	     41.67	    18.634
  82.300	     25.00	    14.434
  82.320	     41.67	    18.634
  82.340	     33.33	    16.667
  82.360	     33.33	    16.667
  82.380	      8.33	     8.333
  82.400	     16.67	    11.785
  82.420	     16.67	    11.785
  82.440	     41.67	    18.634
  82.460	     50.00	    20.412
  82.480	     16.67	    11.785
  82.500	     25.00	    14.434
  82.520	     25.00	    14.434
  82.540	     25.00	    14.434
  82.560	     41.67	    18.634
  82.580	      8.33	     8.333
  82.600	      0.00	     0.000
  82.620	      8.33	     8.333
  82.640	     16.67	    11.785
  82.660	      0.00	     0.000
  82.680	     16.67	    11.785
  82.700	     25.00	    14.434
  82.720	      8.33	     8.333
  82.740	     33.33	    16.667
  82.760	      0.00	     0.000
  82.780	     33.33	    16.667
  82.800	     25.00	    14.434
  82.820	     16.67	    11.785
  82.840	     25.00	    14.434
  82.860	     16.67	    11.785
  82.880	      8.33	     8.333
  82.900	     16.67	    11.785
  82.920	     41.67	    18.634
  82.940	     16.67	    11.785
  82.960	     25.00	    14.434
  82.980	      8.33	     8.333
  83.000	      8.33	     8.333
  83.020	     33.33	    16.667
  83.040	      0.00	     0.000
  83.060	     25.00	    14.434
  83.080	     16.67	    11.785
  83.100	      8.33	     8.333
  83.120	      8.33	     8.333
  83.140	      8.33	     8.333
  83.160	      8.33	     8.333
  83.180	     58.33	    22.048
  83.200	     66.67	    23.570
  83.220	     25.00	    14.434
  83.240	     33.33	    16.667
  83.260	      8.33	     8.333
  83.280	     16.67	    11.785
  83.300	     33.33	    16.667
  83.320	     16.67	    11.785
  83.340	     16.67	    11.785
  83.360	     25.00	    14.434
  83.380	     41.67	    18.634
  83.400	     16.67	    11.785
  83.420	     25.00	    14.434
  83.440	     16.67	    11.785
  83.460	     16.67	    11.785
  83.480	     25.00	    14.434
  83.500	     16.67	    11.785
  83.520	     33.33	    16.667
  83.540	     41.67	    18.634
  83.560	     16.67	    11.785
  83.580	     33.33	    16.667
  83.600	     25.00	    14.434
  83.620	     41.67	    18.634
  83.640	     25.00	    14.434
  83.660	     16.67	    11.785
  83.680	     41.67	    18.634
  83.700	     41.67	    18.634
  83.720	      8.33	     8.333
  83.740	     16.67	    11.785
  83.760	     16.67	    11.785
  83.780	      8.33	     8.333
  83.800	     25.00	    14.434
  83.820	     25.00	    14.434
  83.840	      8.33	     8.333
  83.860	      8.33	     8.333
  83.880	     25.00	    14.434
  83.900	     16.67	    11.785
  83.920	     25.00	    14.434
  83.940	     16.67	    11.785
  83.960	     33.33	    16.667
  83.980	      8.33	     8.333
  84.000	     16.67	    11.785
  84.020	     50.00	    20.412
  84.040	      8.33	     8.333
  84.060	     33.33	    16.667
  84.080	     25.00	    14.434
  84.100	     25.00	    14.434
  84.120	     25.00	    14.434
  84.140	     16.67	    11.785
  84.160	      0.00	     0.000
  84.180	      8.33	     8.333
  84.200	     33.33	    16.667
  84.220	     41.67	    18.634
  84.240	     41.67	    18.634
  84.260	     50.00	    20.412
  84.280	      8.33	     8.333
  84.300	      8.33	     8.333
  84.320	     33.33	    16.667
  84.340	      8.33	     8.333
  84.360	      8.33	     8.333
  84.380	     25.00	    14.434
  84.400	      8.33	     8.333
  84.420	     25.00	    14.434
  84.440	     16.67	    11.785
  84.460	      8.33	     8.333
  84.480	     58.33	    22.048
  84.500	      8.33	     8.333
  84.520	     25.00	    14.434
  84.540	     33.33	    16.667
  84.560	     33.33	    16.667
  84.580	      8.33	     8.333
  84.600	     33.33	    16.667
  84.620	     25.00	    14.434
  84.640	      0.00	     0.000
  84.660	      8.33	     8.333
  84.680	     16.67	    11.785
  84.700	     16.67	    11.785
  84.720	     33.33	    16.667
  84.740	     41.67	    18.634
  84.760	      8.33	     8.333
  84.780	      8.33	     8.333
  84.800	     50.00	    20.412
  84.820	      8.33	     8.333
  84.840	     33.33	    16.667
  84.860	     25.00	    14.434
  84.880	     25.00	    14.434
  84.900	     16.67	    11.785
  84.920	     33.33	    16.667
  84.940	     25.00	    14.434
  84.960	     25.00	    14.434
  84.980	     25.00	    14.434
  85.000	     33.33	    16.667
  85.020	     25.00	    14.434
  85.040	     33.33	    16.667
  85.060	     33.33	    16.667
  85.080	     16.67	    11.785
  85.100	     25.00	    14.434
  85.120	      8.33	     8.333
  85.140	     16.67	    11.785
  85.160	     66.67	    23.570
  85.180	     33.33	    16.667
  85.200	     33.33	    16.667
  85.220	     41.67	    18.634
  85.240	     33.33	    16.667
  85.260	     16.67	    11.785
  85.280	     58.33	    22.048
  85.300	     41.67	    18.634
  85.320	     16.67	    11.785
  85.340	     16.67	    11.785
  85.360	     33.33	    16.667
  85.380	     33.33	    16.667
  85.400	     16.67	    11.785
  85.420	     33.33	    16.667
  85.440	     50.00	    20.412
  85.460	     16.67	    11.785
  85.480	     25.00	    14.434
  85.500	     58.33	    22.048
  85.520	     25.00	    14.434
  85.540	     16.67	    11.785
  85.560	     16.67	    11.785
  85.580	      8.33	     8.333
  85.600	     66.67	    23.570
  85.620	     25.00	    14.434
  85.640	      8.33	     8.333
  85.660	      8.33	     8.333
  85.680	     41.67	    18.634
  85.700	     16.67	    11.785
  85.720	     25.00	    14.434
  85.740	     41.67	    18.634
  85.760	     16.67	    11.785
  85.780	      8.33	     8.333
  85.800	     16.67	    11.785
  85.820	     16.67	    11.785
  85.840	     50.00	    20.412
  85.860	      8.33	     8.333
  85.880	     41.67	    18.634
  85.900	      8.33	     8.333
  85.920	     25.00	    14.434
  85.940	     25.00	    14.434
  85.960	     33.33	    16.667
  85.980	     41.67	    18.634
  86.000	     41.67	    18.634
  86.020	      0.00	     0.000
  86.040	     33.33	    16.667
  86.060	      8.33	     8.333
  86.080	     25.00	    14.434
  86.100	      8.33	     8.333
  86.120	     25.00	    14.434
  86.140	     41.67	    18.634
  86.160	     16.67	    11.785
  86.180	      0.00	     0.000
  86.200	     25.00	    14.434
  86.220	     33.33	    16.667
  86.240	     33.33	    16.667
  86.260	     16.67	    11.785
  86.280	     25.00	    14.434
  86.300	     58.33	    22.048
  86.320	     33.33	    16.667
  86.340	     33.33	    16.667
  86.360	     16.67	    11.785
  86.380	      8.33	     8.333
  86.400	      0.00	     0.000
  86.420	     25.00	    14.434
  86.440	      8.33	     8.333
  86.460	     33.33	    16.667
  86.480	      0.00	     0.000
  86.500	      8.33	     8.333
  86.520	     58.33	    22.048
  86.540	     41.67	    18.634
  86.560	     25.00	    14.434
  86.580	      8.33	     8.333
  86.600	      8.33	     8.333
  86.620	     41.67	    18.634
  86.640	     25.00	    14.434
  86.660	     16.67	    11.785
  86.680	     58.33	    22.048
  86.700	     16.67	    11.785
  86.720	     41.67	    18.634
  86.740	      8.33	     8.333
  86.760	     41.67	    18.634
  86.780	     16.67	    11.785
  86.800	     41.67	    18.634
  86.820	     25.00	    14.434
  86.840	     41.67	    18.634
  86.860	     16.67	    11.785
  86.880	     50.00	    20.412
  86.900	      8.33	     8.333
  86.920	     25.00	    14.434
  86.940	     16.67	    11.785
  86.960	     66.67	    23.570
  86.980	     33.33	    16.667
  87.000	     16.67	    11.785
  87.020	     25.00	    14.434
  87.040	     33.33	    16.667
  87.060	     25.00	    14.434
  87.080	     16.67	    11.785
  87.100	     50.00	    20.412
  87.120	     33.33	    16.667
  87.140	     58.33	    22.048
  87.160	     25.00	    14.434
  87.180	     33.33	    16.667
  87.200	     41.67	    18.634
  87.220	      8.33	     8.333
  87.240	      8.33	     8.333
  87.260	      8.33	     8.333
  87.280	     33.33	    16.667
  87.300	     50.00	    20.412
  87.320	     41.67	    18.634
  87.340	     58.33	    22.048
  87.360	      8.33	     8.333
  87.380	     75.00	    25.000
  87.400	     25.00	    14.434
  87.420	     66.67	    23.570
  87.440	     66.67	    23.570
  87.460	     75.00	    25.000
  87.480	    100.00	    28.868
  87.500	    166.67	    37.268
  87.520	    266.67	    47.140
  87.540	    275.00	    47.871
  87.560	    508.33	    65.085
  87.580	    683.33	    75.462
  87.600	    775.00	    80.364
  87.620	    691.67	    75.920
  87.640	    858.33	    84.574
  87.660	    908.33	    87.003
  87.680	    800.00	    81.650
  87.700	    616.67	    71.686
  87.720	    416.67	    58.926
  87.740	    350.00	    54.006
  87.760	    208.33	    41.667
  87.780	    241.67	    44.876
  87.800	    116.67	    31.180
  87.820	    191.67	    39.965
  87.840	    250.00	    45.644
  87.860	    325.00	    52.042
  87.880	    375.00	    55.902
  87.900	    558.33	    68.211
  87.920	    516.67	    65.617
  87.940	    383.33	    56.519
  87.960	    408.33	    58.333
  87.980	    233.33	    44.096
  88.000	    175.00	    38.188
  88.020	    150.00	    35.355
  88.040	    108.33	    30.046
  88.060	    116.67	    31.180
  88.080	     50.00	    20.412
  88.100	    100.00	    28.868
  88.120	     66.67	    23.570
  88.140	     50.00	    20.412
  88.160	     83.33	    26.352
  88.180	     50.00	    20.412
  88.200	     41.67	    18.634
  88.220	     33.33	    16.667
  88.240	     50.00	    20.412
  88.260	     16.67	    11.785
  88.280	     50.00	    20.412
  88.300	     66.67	    23.570
  88.320	     50.00	    20.412
  88.340	     16.67	    11.785
  88.360	     41.67	    18.634
  88.380	      8.33	     8.333
  88.400	     75.00	    25.000
  88.420	     50.00	    20.412
  88.440	     50.00	    20.412
  88.460	     16.67	    11.785
  88.480	     33.33	    16.667
  88.500	      8.33	     8.333
  88.520	     41.67	    18.634
  88.540	     58.33	    22.048
  88.560	     25.00	    14.434
  88.580	     25.00	    14.434
  88.600	     41.67	    18.634
  88.620	     33.33	    16.667
  88.640	     50.00	    20.412
  88.660	     50.00	    20.412
  88.680	     41.67	    18.634
  88.700	     50.00	    20.412
  88.720	     16.67	    11.785
  88.740	     66.67	    23.570
  88.760	     50.00	    20.412
  88.780	     66.67	    23.570
  88.800	     58.33	    22.048
  88.820	     16.67	    11.785
  88.840	     41.67	    18.634
  88.860	     25.00	    14.434
  88.880	     25.00	    14.434
  88.900	     25.00	    14.434
  88.920	     33.33	    16.667
  88.940	     25.00	    14.434
  88.960	      0.00	     0.000
  88.980	     41.67	    18.634
  89.000	     25.00	    14.434
  89.020	     41.67	    18.634
  89.040	     16.67	    11.785
  89.060	      8.33	     8.333
  89.080	     33.33	    16.667
  89.100	     16.67	    11.785
  89.120	     41.67	    18.634
  89.140	     25.00	    14.434
  89.160	     50.00	    20.412
  89.180	     16.67	    11.785
  89.200	     41.67	    18.634
  89.220	     25.00	    14.434
  89.240	     25.00	    14.434
  89.260	     33.33	    16.667
  89.280	     41.67	    18.634
  89.300	     41.67	    18.634
  89.320	      8.33	     8.333
  89.340	     16.67	    11.785
  89.360	     16.67	    11.785
  89.380	     16.67	    11.785
  89.400	     33.33	    16.667
  89.420	     16.67	    11.785
  89.440	     16.67	    11.785
  89.460	      8.33	     8.333
  89.480	     41.67	    18.634
  89.500	     33.33	    16.667
  89.520	     50.00	    20.412
  89.540	     33.33	    16.667
  89.560	     25.00	    14.434
  89.580	     50.00	    20.412
  89.600	     66.67	    23.570
  89.620	     50.00	    20.412
  89.640	     33.33	    16.667
  89.660	     16.67	    11.785
  89.680	     33.33	    16.667
  89.700	     16.67	    11.785
  89.720	     33.33	    16.667
  89.740	     16.67	    11.785
  89.760	     50.00	    20.412
  89.780	     33.33	    16.667
  89.800	     33.33	    16.667
  89.820	     33.33	    16.667
  89.840	     50.00	    20.412
  89.860	     25.00	    14.434
  89.880	     16.67	    11.785
  89.900	     41.67	    18.634
  89.920	     16.67	    11.785
  89.940	      8.33	     8.333
  89.960	     16.67	    11.785
  89.980	     33.33	    16.667
  90.000	     41.67	    18.634
  90.020	     41.67	    18.634
  90.040	     33.33	    16.667
  90.060	      8.33	     8.333
  90.080	      0.00	     0.000
  90.100	     41.67	    18.634
  90.120	     16.67	    11.785
  90.140	     33.33	    16.667
  90.160	     16.67	    11.785
  90.180	     33.33	    16.667
  90.200	     50.00	    20.412
  90.220	     41.67	    18.634
  90.240	     33.33	    16.667
  90.260	     33.33	    16.667
  90.280	     25.00	    14.434
  90.300	     25.00	    14.434
  90.320	     33.33	    16.667
  90.340	     33.33	    16.667
  90.360	     16.67	    11.785
  90.380	     33.33	    16.667
  90.400	     41.67	    18.634
  90.420	     41.67	    18.634
  90.440	     58.33	    22.048
  90.460	     16.67	    11.785
  90.480	     33.33	    16.667
  90.500	      0.00	     0.000
  90.520	     58.33	    22.048
  90.540	     33.33	    16.667
  90.560	     16.67	    11.785
  90.580	     41.67	    18.634
  90.600	     33.33	    16.667
  90.620	     25.00	    14.434
  90.640	     25.00	    14.434
  90.660	     25.00	    14.434
  90.680	     75.00	    25.000
  90.700	      8.33	     8.333
  90.720	     41.67	    18.634
  90.740	     16.67	    11.785
  90.760	      8.33	     8.333
  90.780	     16.67	    11.785
  90.800	     33.33	    16.667
  90.820	     50.00	    20.412
  90.840	     25.00	    14.434
  90.860	     16.67	    11.785
  90.880	     33.33	    16.667
  90.900	     16.67	    11.785
  90.920	     33.33	    16.667
  90.940	      8.33	     8.333
  90.960	     41.67	    18.634
  90.980	     16.67	    11.785
  91.000	     25.00	    14.434
  91.020	     41.67	    18.634
  91.040	     25.00	    14.434
  91.060	     25.00	    14.434
  91.080	     33.33	    16.667
  91.100	      8.33	     8.333
  91.120	     25.00	    14.434
  91.140	     25.00	    14.434
  91.160	      8.33	     8.333
  91.180	     33.33	    16.667
  91.200	     16.67	    11.785
  91.220	     33.33	    16.667
  91.240	     25.00	    14.434
  91.260	     33.33	    16.667
  91.280	      8.33	     8.333
  91.300	     41.67	    18.634
  91.320	     33.33	    16.667
  91.340	     33.33	    16.667
  91.360	     41.67	    18.634
  91.380	      0.00	     0.000
  91.400	     16.67	    11.785
  91.420	     33.33	    16.667
  91.440	     16.67	    11.785
  91.460	     41.67	    18.634
  91.480	     33.33	    16.667
  91.500	     41.67	    18.634
  91.520	     66.67	    23.570
  91.540	     16.67	    11.785
  91.560	     33.33	    16.667
  91.580	     25.00	    14.434
  91.600	     83.33	    26.352
  91.620	     25.00	    14.434
  91.640	     16.67	    11.785
  91.660	     25.00	    14.434
  91.680	     16.67	    11.785
  91.700	     33.33	    16.667
  91.720	     16.67	    11.785
  91.740	      8.33	     8.333
  91.760	     16.67	    11.785
  91.780	      0.00	     0.000
  91.800	     41.67	    18.634
  91.820	     33.33	    16.667
  91.840	     75.00	    25.000
  91.860	     33.33	    16.667
  91.880	     25.00	    14.434
  91.900	     41.67	    18.634
  91.920	     16.67	    11.785
  91.940	     25.00	    14.434
  91.960	     50.00	    20.412
  91.980	     16.67	    11.785
  92.000	     50.00	    20.412
  92.020	     33.33	    16.667
  92.040	     41.67	    18.634
  92.060	     33.33	    16.667
  92.080	     25.00	    14.434
  92.100	     41.67	    18.634
  92.120	     25.00	    14.434
  92.140	     50.00	    20.412
  92.160	     16.67	    11.785
  92.180	     25.00	    14.434
  92.200	      0.00	     0.000
  92.220	     33.33	    16.667
  92.240	      8.33	     8.333
  92.260	     25.00	    14.434
  92.280	     25.00	    14.434
  92.300	     16.67	    11.785
  92.320	     50.00	    20.412
  92.340	     25.00	    14.434
  92.360	     25.00	    14.434
  92.380	     25.00	    14.434
  92.400	     50.00	    20.412
  92.420	     16.67	    11.785
  92.440	     41.67	    18.634
  92.460	     25.00	    14.434
  92.480	     25.00	    14.434
  92.500	     16.67	    11.785
  92.520	      8.33	     8.333
  92.540	     16.67	    11.785
  92.560	     58.33	    22.048
  92.580	      0.00	     0.000
  92.600	     33.33	    16.667
  92.620	     25.00	    14.434
  92.640	     33.33	    16.667
  92.660	     41.67	    18.634
  92.680	     33.33	    16.667
  92.700	      8.33	     8.333
  92.720	      8.33	     8.333
  92.740	      8.33	     8.333
  92.760	     16.67	    11.785
  92.780	     25.00	    14.434
  92.800	     33.33	    16.667
  92.820	     33.33	    16.667
  92.840	     25.00	    14.434
  92.860	     66.67	    23.570
  92.880	     25.00	    14.434
  92.900	     50.00	    20.412
  92.920	     50.00	    20.412
  92.940	     25.00	    14.434
  92.960	      8.33	     8.333
  92.980	     33.33	    16.667
  93.000	     33.33	    16.667
  93.020	     25.00	    14.434
  93.040	     33.33	    16.667
  93.060	     16.67	    11.785
  93.080	     33.33	    16.667
  93.100	     16.67	    11.785
  93.120	      8.33	     8.333
  93.140	     16.67	    11.785
  93.160	     16.67	    11.785
  93.180	      8.33	     8.333
  93.200	      8.33	     8.333
  93.220	     16.67	    11.785
  93.240	     33.33	    16.667
  93.260	     25.00	    14.434
  93.280	     50.00	    20.412
  93.300	     33.33	    16.667
  93.320	     16.67	    11.785
  93.340	     16.67	    11.785
  93.360	     33.33	    16.667
  93.380	     41.67	    18.634
  93.400	     16.67	    11.785
  93.420	     33.33	    16.667
  93.440	     25.00	    14.434
  93.460	     16.67	    11.785
  93.480	      8.33	     8.333
  93.500	     50.00	    20.412
  93.520	     41.67	    18.634
  93.540	     16.67	    11.785
  93.560	     25.00	    14.434
  93.580	     33.33	    16.667
  93.600	     25.00	    14.434
  93.620	     33.33	    16.667
  93.640	     25.00	    14.434
  93.660	     33.33	    16.667
  93.680	     33.33	    16.667
  93.700	     25.00	    14.434
  93.720	     25.00	    14.434
  93.740	     33.33	    16.667
  93.760	     16.67	    11.785
  93.780	     33.33	    16.667
  93.800	     41.67	    18.634
  93.820	     16.67	    11.785
  93.840	     25.00	    14.434
  93.860	     33.33	    16.667
  93.880	     16.67	    11.785
  93.900	      8.33	     8.333
  93.920	     58.33	    22.048
  93.940	     16.67	    11.785
  93.960	     25.00	    14.434
  93.980	     33.33	    16.667
  94.000	     16.67	    11.785
  94.020	     41.67	    18.634
  94.040	     16.67	    11.785
  94.060	     41.67	    18.634
  94.080	     16.67	    11.785
  94.100	     16.67	    11.785
  94.120	     16.67	    11.785
  94.140	     33.33	    16.667
  94.160	     25.00	    14.434
  94.180	      8.33	     8.333
  94.200	     16.67	    11.785
  94.220	     33.33	    16.667
  94.240	     25.00	    14.434
  94.260	     25.00	    14.434
  94.280	     25.00	    14.434
  94.300	     41.67	    18.634
  94.320	     33.33	    16.667
  94.340	     41.67	    18.634
  94.360	     33.33	    16.667
  94.380	     33.33	    16.667
  94.400	     16.67	    11.785
  94.420	     25.00	    14.434
  94.440	     16.67	    11.785
  94.460	      8.33	     8.333
  94.480	      8.33	     8.333
  94.500	     16.67	    11.785
  94.520	     41.67	    18.634
  94.540	     33.33	    16.667
  94.560	      8.33	     8.333
  94.580	      8.33	     8.333
  94.600	     16.67	    11.785
  94.620	     16.67	    11.785
  94.640	     41.67	    18.634
  94.660	     41.67	    18.634
  94.680	     33.33	    16.667
  94.700	     50.00	    20.412
  94.720	     33.33	    16.667
  94.740	      8.33	     8.333
  94.760	     16.67	    11.785
  94.780	     16.67	    11.785
  94.800	     25.00	    14.434
  94.820	     41.67	    18.634
  94.840	     33.33	    16.667
  94.860	     33.33	    16.667
  94.880	     33.33	    16.667
  94.900	     50.00	    20.412
  94.920	     66.67	    23.570
  94.940	     33.33	    16.667
  94.960	     25.00	    14.434
  94.980	     25.00	    14.434
  95.000	     50.00	    20.412
  95.020	     41.67	    18.634
  95.040	     58.33	    22.048
  95.060	     16.67	    11.785
  95.080	      0.00	     0.000
  95.100	      8.33	     8.333
  95.120	      8.33	     8.333
  95.140	     25.00	    14.434
  95.160	     25.00	    14.434
  95.180	      8.33	     8.333
  95.200	      8.33	     8.333
  95.220	     33.33	    16.667
  95.240	     16.67	    11.785
  95.260	     41.67	    18.634
  95.280	     66.67	    23.570
  95.300	     41.67	    18.634
  95.320	     41.67	    18.634
  95.340	     33.33	    16.667
  95.360	     25.00	    14.434
  95.380	      8.33	     8.333
  95.400	     41.67	    18.634
  95.420	     16.67	    11.785
  95.440	     58.33	    22.048
  95.460	     33.33	    16.667
  95.480	     41.67	    18.634
  95.500	      0.00	     0.000
  95.520	     25.00	    14.434
  95.540	     41.67	    18.634
  95.560	     41.67	    18.634
  95.580	     33.33	    16.667
  95.600	     58.33	    22.048
  95.620	     41.67	    18.634
  95.640	     33.33	    16.667
  95.660	     33.33	    16.667
  95.680	     25.00	    14.434
  95.700	     16.67	    11.785
  95.720	      8.33	     8.333
  95.740	     33.33	    16.667
  95.760	     25.00	    14.434
  95.780	     41.67	    18.634
  95.800	     25.00	    14.434
  95.820	     33.33	    16.667
  95.840	      8.33	     8.333
  95.860	     25.00	    14.434
  95.880	     16.67	    11.785
  95.900	     16.67	    11.785
  95.920	     41.67	    18.634
  95.940	     25.00	    14.434
  95.960	      8.33	     8.333
  95.980	     25.00	    14.434
  96.000	     66.67	    23.570
  96.020	     33.33	    16.667
  96.040	     16.67	    11.785
  96.060	     16.67	    11.785
  96.080	     41.67	    18.634
  96.100	     16.67	    11.785
  96.120	     50.00	    20.412
  96.140	     25.00	    14.434
  96.160	     16.67	    11.785
  96.180	     33.33	    16.667
  96.200	     33.33	    16.667
  96.220	     25.00	    14.434
  96.240	     33.33	    16.667
  96.260	     25.00	    14.434
  96.280	     41.67	    18.634
  96.300	     33.33	    16.667
  96.320	     16.67	    11.785
  96.340	     16.67	    11.785
  96.360	     33.33	    16.667
  96.380	      0.00	     0.000
  96.400	     16.67	    11.785
  96.420	     25.00	    14.434
  96.440	     33.33	    16.667
  96.460	     33.33	    16.667
  96.480	      8.33	     8.333
  96.500	     16.67	    11.785
  96.520	      8.33	     8.333
  96.540	     16.67	    11.785
  96.560	     16.67	    11.785
  96.580	     16.67	    11.785
  96.600	     16.67	    11.785
  96.620	     33.33	    16.667
  96.640	      8.33	     8.333
  96.660	     33.33	    16.667
  96.680	     25.00	    14.434
  96.700	     33.33	    16.667
  96.720	      8.33	     8.333
  96.740	     66.67	    23.570
  96.760	      8.33	     8.333
  96.780	     25.00	    14.434
  96.800	     25.00	    14.434
  96.820	     50.00	    20.412
  96.840	     33.33	    16.667
  96.860	     33.33	    16.667
  96.880	     25.00	    14.434
  96.900	     33.33	    16.667
  96.920	     25.00	    14.434
  96.940	     25.00	    14.434
  96.960	     41.67	    18.634
  96.980	      8.33	     8.333
  97.000	     41.67	    18.634
  97.020	     33.33	    16.667
  97.040	      8.33	     8.333
  97.060	     50.00	    20.412
  97.080	     66.67	    23.570
  97.100	     50.00	    20.412
  97.120	     25.00	    14.434
  97.140	     33.33	    16.667
  97.160	     25.00	    14.434
  97.180	      8.33	     8.333
  97.200	     16.67	    11.785
  97.220	     25.00	    14.434
  97.240	      0.00	     0.000
  97.260	     25.00	    14.434
  97.280	     33.33	    16.667
  97.300	     33.33	    16.667
  97.320	     33.33	    16.667
  97.340	      8.33	     8.333
  97.360	     25.00	    14.434
  97.380	     25.00	    14.434
  97.400	      8.33	     8.333
  97.420	     50.00	    20.412
  97.440	     41.67	    18.634
  97.460	     58.33	    22.048
  97.480	     50.00	    20.412
  97.500	     33.33	    16.667
  97.520	     33.33	    16.667
  97.540	     41.67	    18.634
  97.560	      8.33	     8.333
  97.580	     16.67	    11.785
  97.600	     33.33	    16.667
  97.620	      8.33	     8.333
  97.640	     25.00	    14.434
  97.660	     50.00	    20.412
  97.680	     50.00	    20.412
  97.700	     50.00	    20.412
  97.720	     33.33	    16.667
  97.740	     41.67	    18.634
  97.760	     16.67	    11.785
  97.780	     50.00	    20.412
  97.800	     33.33	    16.667
  97.820	     16.67	    11.785
  97.840	     33.33	    16.667
  97.860	      8.33	     8.333
  97.880	     41.67	    18.634
  97.900	     50.00	    20.412
  97.920	     33.33	    16.667
  97.940	      0.00	     0.000
  97.960	     33.33	    16.667
  97.980	     25.00	    14.434
  98.000	     25.00	    14.434
  98.020	     50.00	    20.412
  98.040	     58.33	    22.048
  98.060	     16.67	    11.785
  98.080	     16.67	    11.785
  98.100	     41.67	    18.634
  98.120	     66.67	    23.570
  98.140	     41.67	    18.634
  98.160	     25.00	    14.434
  98.180	     41.67	    18.634
  98.200	     33.33	    16.667
  98.220	     33.33	    16.667
  98.240	     16.67	    11.785
  98.260	     16.67	    11.785
  98.280	     41.67	    18.634
  98.300	      8.33	     8.333
  98.320	     50.00	    20.412
  98.340	     41.67	    18.634
  98.360	     33.33	    16.667
  98.380	     25.00	    14.434
  98.400	     16.67	    11.785
  98.420	     33.33	    16.667
  98.440	     33.33	    16.667
  98.460	     25.00	    14.434
  98.480	     50.00	    20.412
  98.500	     41.67	    18.634
  98.520	     33.33	    16.667
  98.540	      0.00	     0.000
  98.560	     25.00	    14.434
  98.580	     25.00	    14.434
  98.600	     41.67	    18.634
  98.620	     41.67	    18.634
  98.640	     16.67	    11.785
  98.660	     16.67	    11.785
  98.680	     16.67	    11.785
  98.700	     33.33	    16.667
  98.720	     16.67	    11.785
  98.740	     50.00	    20.412
  98.760	     25.00	    14.434
  98.780	     33.33	    16.667
  98.800	     33.33	    16.667
  98.820	     16.67	    11.785
  98.840	     58.33	    22.048
  98.860	     33.33	    16.667
  98.880	     16.67	    11.785
  98.900	     16.67	    11.785
  98.920	     16.67	    11.785
  98.940	     33.33	    16.667
  98.960	     33.33	    16.667
  98.980	     33.33	    16.667
  99.000	     33.33	    16.667
  99.020	     33.33	    16.667
  99.040	     25.00	    14.434
  99.060	      0.00	     0.000
  99.080	     50.00	    20.412
  99.100	     66.67	    23.570
  99.120	     25.00	    14.434
  99.140	     33.33	    16.667
  99.160	     50.00	    20.412
  99.180	     25.00	    14.434
  99.200	     58.33	    22.048
  99.220	     25.00	    14.434
  99.240	      8.33	     8.333
  99.260	     16.67	    11.785
  99.280	      8.33	     8.333
  99.300	     33.33	    16.667
  99.320	     25.00	    14.434
  99.340	     50.00	    20.412
  99.360	     33.33	    16.667
  99.380	     16.67	    11.785
  99.400	     75.00	    25.000
  99.420	     25.00	    14.434
  99.440	     75.00	    25.000
  99.460	     33.33	    16.667
  99.480	     25.00	    14.434
  99.500	     33.33	    16.667
  99.520	     50.00	    20.412
  99.540	     50.00	    20.412
  99.560	     58.33	    22.048
  99.580	     25.00	    14.434
  99.600	     25.00	    14.434
  99.620	     16.67	    11.785
  99.640	     16.67	    11.785
  99.660	     66.67	    23.570
  99.680	      8.33	     8.333
  99.700	     25.00	    14.434
  99.720	     25.00	    14.434
  99.740	      8.33	     8.333
  99.760	     41.67	    18.634
  99.780	     58.33	    22.048
  99.800	     16.67	    11.785
  99.820	     41.67	    18.634
  99.840	     50.00	    20.412
  99.860	     25.00	    14.434
  99.880	      8.33	     8.333
  99.900	     33.33	    16.667
  99.920	     41.67	    18.634
  99.940	     41.67	    18.634
  99.960	     66.67	    23.570
  99.980	     33.33	    16.667
 100.000	     41.67	    18.634
